Loop Time (ms)	IR (16 bit)	Force (N)
20	10171	1529.74
44	10171	1529.61
64	10167	1529.74
64	10170	1529.74
64	10169	1529.74
64	10176	1529.74
64	10169	1529.87
64	10173	1529.74
64	10172	1529.74
64	10173	1529.74
64	10171	1529.74
64	10177	1529.74
80	10172	1529.74
64	10173	1529.74
64	10178	1529.87
64	10179	1529.74
63	10172	1529.74
64	10176	1529.87
64	10174	1529.74
65	10180	1529.74
63	10175	1529.74
65	10178	1529.74
64	10177	1529.74
64	10176	1529.74
80	10176	1529.74
63	10182	1529.74
64	10176	1529.74
64	10179	1529.87
64	10181	1529.74
64	10180	1529.74
64	10180	1529.74
64	10181	1529.74
64	10185	1529.74
65	10181	1529.87
63	10189	1529.87
64	10185	1529.87
79	10185	1529.74
65	10185	1529.87
64	10185	1529.74
64	10191	1529.74
64	10185	1529.61
64	10184	1529.74
64	10185	1529.74
64	10187	1529.74
63	10186	1529.87
65	10190	1529.74
63	10185	1529.87
65	10187	1529.87
80	10189	1529.74
63	10192	1529.74
64	10190	1529.74
64	10189	1529.74
65	10192	1529.74
64	10190	1529.87
63	10188	1529.87
65	10190	1529.87
65	10190	1529.74
62	10194	1529.87
65	10193	1529.74
64	10195	1529.87
79	10190	1529.74
64	10193	1529.61
64	10194	1529.74
64	10197	1529.74
64	10199	1529.74
64	10196	1529.74
64	10194	1529.87
63	10194	1529.87
65	10194	1529.87
64	10192	1529.87
64	10197	1529.74
64	10192	1529.87
80	10196	1529.74
64	10196	1529.87
63	10198	1529.87
65	10192	1529.87
63	10197	1529.87
65	10198	1529.87
64	10193	1529.74
63	10196	1529.87
64	10195	1529.74
65	10198	1529.87
64	10199	1529.87
64	10201	1529.87
80	10199	1529.87
63	10199	1529.87
64	10202	1529.87
65	10199	1529.87
63	10198	1529.74
64	10198	1529.74
65	10202	1529.87
63	10201	1529.87
64	10202	1529.87
65	10199	1529.87
63	10203	1529.99
64	10201	1529.87
80	10204	1529.87
63	10203	1529.87
66	10207	1529.87
63	10207	1529.74
63	10206	1529.87
64	10207	1529.87
66	10205	1529.87
63	10205	1529.87
63	10207	1529.87
65	10209	1529.87
64	10208	1529.87
63	10206	1529.87
82	10210	1529.87
63	10208	1529.87
64	10213	1529.87
64	10209	1529.87
91	10209	1529.74
36	10206	1529.99
64	10209	1529.87
64	10212	1529.99
64	10210	1529.99
64	10207	1529.87
64	10211	1529.87
64	10210	1529.87
80	10211	1529.87
64	10212	1529.99
64	10209	1529.87
64	10212	1530.12
64	10212	1529.74
64	10212	1529.87
64	10212	1529.87
63	10210	1529.99
65	10213	1529.87
64	10210	1529.87
64	10215	1529.87
63	10214	1529.87
81	10216	1529.99
63	10215	1529.99
65	10216	1529.99
63	10215	1529.87
65	10218	1529.87
64	10217	1529.99
63	10214	1529.87
64	10216	1529.99
64	10217	1529.99
65	10215	1529.87
64	10213	1529.87
64	10217	1529.99
79	10221	1529.87
64	10215	1529.99
64	10218	1529.87
64	10218	1529.87
64	10219	1530.12
64	10222	1529.99
64	10216	1529.99
64	10219	1529.99
64	10217	1529.87
64	10220	1529.99
64	10220	1529.99
63	10217	1529.99
81	10221	1529.87
63	10217	1529.87
65	10223	1529.99
63	10220	1529.87
65	10220	1529.87
64	10222	1529.99
64	10223	1529.99
92	10223	1529.99
36	10223	1529.99
63	10224	1529.99
64	10221	1529.99
65	10225	1529.87
79	10220	1529.99
65	10219	1529.99
64	10223	1529.99
63	10223	1529.99
64	10225	1529.87
64	10224	1529.99
64	10229	1529.99
64	10227	1529.99
64	10227	1529.99
64	10224	1529.99
64	10228	1529.99
64	10227	1529.99
80	10227	1529.99
64	10226	1529.99
63	10227	1529.99
64	10225	1529.99
64	10229	1530.12
65	10228	1530.12
64	10227	1529.99
65	10227	1529.99
63	10231	1529.99
63	10224	1529.99
65	10232	1530.12
64	10228	1529.99
79	10229	1529.99
65	10227	1529.99
63	10231	1529.87
64	10232	1529.99
65	10234	1529.99
64	10235	1529.99
64	10230	1529.99
63	10233	1529.99
64	10231	1530.12
64	10231	1529.99
64	10234	1529.99
65	10231	1529.99
63	10232	1529.99
80	10238	1529.87
64	10236	1529.99
64	10232	1529.99
64	10235	1530.12
64	10236	1529.99
64	10235	1530.12
64	10238	1530.12
64	10236	1529.99
64	10235	1529.87
63	10236	1529.99
65	10234	1530.12
64	10237	1529.99
80	10238	1529.99
63	10237	1530.12
65	10237	1530.12
63	10234	1530.12
65	10236	1529.99
63	10234	1529.99
65	10234	1529.99
63	10236	1529.99
64	10237	1529.99
65	10238	1529.99
63	10243	1530.12
64	10241	1529.99
80	10238	1529.99
64	10239	1529.99
65	10240	1529.99
63	10239	1529.99
64	10239	1529.99
64	10241	1530.12
64	10240	1530.12
64	10237	1529.99
63	10239	1529.87
65	10240	1530.12
64	10240	1529.99
64	10239	1529.99
80	10238	1529.99
64	10242	1530.12
63	10243	1530.12
64	10245	1529.99
64	10243	1529.99
65	10246	1529.99
64	10242	1530.12
64	10246	1529.99
64	10244	1529.99
63	10240	1530.12
64	10243	1529.99
65	10244	1530.12
80	10246	1530.12
64	10246	1530.25
64	10241	1530.12
63	10247	1530.12
64	10246	1530.12
64	10243	1530.12
64	10245	1529.99
65	10250	1530.25
63	10249	1530.12
64	10242	1530.12
64	10244	1529.99
64	10246	1530.12
80	10245	1530.12
64	10246	1530.12
63	10246	1530.25
65	10248	1529.99
64	10247	1530.12
64	10248	1529.99
64	10247	1530.12
63	10250	1530.12
65	10249	1530.12
63	10251	1530.25
64	10248	1530.25
64	10249	1530.12
81	10253	1530.12
64	10245	1529.99
63	10250	1530.12
65	10248	1530.12
63	10250	1530.12
64	10252	1530.12
65	10252	1530.12
64	10249	1530.25
64	10248	1530.12
63	10250	1530.25
64	10249	1529.99
64	10252	1529.99
80	10252	1530.25
64	10252	1530.12
64	10254	1530.12
64	10246	1530.12
64	10255	1530.12
64	10249	1529.99
63	10251	1530.12
65	10253	1530.12
63	10249	1530.12
64	10258	1529.99
65	10256	1530.12
64	10253	1529.99
80	10258	1530.12
64	10255	1530.12
63	10255	1530.12
65	10252	1530.12
63	10253	1529.99
65	10258	1530.12
63	10254	1530.12
64	10260	1529.99
64	10256	1530.12
65	10254	1530.25
64	10260	1530.25
63	10256	1530.12
80	10261	1530.12
64	10263	1530.25
64	10257	1530.12
65	10259	1530.25
63	10258	1530.12
64	10258	1530.12
64	10262	1530.25
64	10259	1530.38
64	10259	1530.12
64	10261	1530.12
64	10259	1529.99
63	10260	1530.12
81	10261	1530.12
63	10263	1530.25
64	10259	1530.12
65	10262	1529.99
63	10260	1530.25
65	10266	1530.12
63	10261	1529.99
64	10260	1529.99
64	10261	1530.12
65	10264	1530.12
63	10265	1530.25
64	10262	1530.12
80	10263	1530.12
65	10263	1530.12
63	10263	1530.25
64	10265	1530.12
64	10259	1530.12
64	10264	1530.12
64	10266	1530.25
64	10262	1530.25
64	10262	1530.25
64	10264	1530.25
64	10263	1530.12
64	10262	1530.12
81	10264	1530.12
63	10262	1530.25
64	10262	1530.12
63	10263	1530.25
65	10266	1530.25
63	10265	1530.25
65	10261	1530.25
63	10269	1530.12
65	10266	1530.12
63	10265	1530.25
65	10265	1530.25
63	10269	1530.12
81	10267	1530.12
63	10271	1530.12
65	10271	1530.12
63	10270	1530.25
64	10278	1530.12
65	10279	1530.12
64	10284	1530.25
64	10288	1530.25
64	10295	1530.25
64	10297	1530.12
63	10303	1530.25
64	10305	1530.38
80	10309	1530.25
64	10317	1530.25
64	10321	1530.12
64	10320	1530.25
64	10330	1530.25
64	10334	1530.25
64	10338	1530.12
64	10345	1530.25
64	10352	1530.25
64	10357	1530.25
64	10361	1530.25
64	10365	1530.25
80	10375	1530.25
64	10383	1530.25
64	10385	1530.25
64	10397	1530.25
64	10403	1530.25
64	10406	1530.25
64	10414	1530.25
63	10422	1530.12
64	10428	1530.12
65	10440	1530.25
63	10447	1530.25
65	10450	1530.25
80	10459	1530.25
64	10467	1530.12
63	10477	1530.25
65	10487	1530.38
63	10491	1530.25
64	10500	1530.12
64	10508	1530.25
64	10519	1530.25
64	10531	1530.25
64	10539	1530.25
63	10551	1530.25
65	10561	1530.25
80	10573	1530.25
64	10582	1530.25
64	10594	1530.25
63	10603	1530.25
65	10619	1530.25
64	10630	1530.12
63	10641	1530.38
65	10654	1530.25
63	10666	1530.25
65	10682	1530.25
64	10698	1530.25
64	10713	1530.25
64	10721	1530.25
80	10737	1530.38
64	10755	1530.25
63	10776	1530.25
64	10790	1530.51
64	10807	1530.76
64	10812	1531.14
64	10821	1531.53
64	10844	1531.78
64	10859	1532.42
64	10865	1532.81
64	10878	1533.57
64	10899	1534.34
80	10913	1535.36
64	10934	1536.39
64	10951	1537.41
64	10971	1538.56
64	10996	1539.58
64	11011	1540.86
64	11004	1542.14
64	10706	1543.54
64	10288	1544.69
63	10061	1546.35
65	9937	1548.02
63	9816	1549.93
81	9694	1552.23
63	9570	1554.53
65	9407	1557.09
64	8395	1559.77
64	6994	1561.31
63	7147	1538.17
65	7350	1523.6
63	7560	1523.6
64	7607	1524.12
65	7647	1525.14
63	7657	1526.67
65	7664	1528.33
80	7662	1529.74
63	7661	1531.14
64	7654	1531.4
65	7655	1529.23
63	7653	1526.54
64	7651	1523.35
64	7643	1519.77
63	7634	1516.06
65	7621	1512.48
64	7605	1509.16
63	7579	1505.97
65	7557	1503.28
80	7546	1501.36
64	7531	1500.21
63	7501	1499.45
65	7465	1499.45
64	7368	1500.09
64	7247	1500.85
63	7154	1502
65	7067	1503.41
64	7055	1504.94
63	7066	1506.73
64	7071	1508.39
64	7089	1510.06
80	7121	1511.46
65	7161	1513
64	7207	1513.89
64	7253	1515.04
64	7299	1516.06
64	7334	1516.96
63	7374	1517.6
64	7410	1517.72
64	7467	1517.98
65	7584	1518.11
63	7736	1519.26
64	7919	1520.54
80	8031	1521.69
64	8116	1521.94
64	8201	1521.94
64	8271	1521.94
65	8321	1522.2
63	8373	1522.96
64	8423	1523.99
63	8495	1525.14
65	8548	1526.29
64	8577	1527.31
64	8603	1527.82
64	8632	1528.59
79	8654	1528.97
64	8670	1529.23
64	8682	1529.48
64	8697	1529.61
65	8709	1529.74
63	8716	1529.74
65	8726	1529.99
64	8732	1529.99
63	8742	1529.99
65	8747	1530.12
63	8754	1530.12
64	8768	1530.12
80	8782	1530.12
64	8792	1530.12
64	8799	1530.12
64	8803	1530.12
64	8815	1530.12
64	8817	1530.12
64	8831	1530.12
64	8840	1530.12
63	8841	1530.25
65	8850	1530.12
64	8860	1529.99
63	8857	1530.12
80	8871	1530.12
65	8873	1530.12
63	8887	1530.12
65	8898	1530.12
64	8919	1530.12
64	8916	1530.12
64	8930	1529.99
64	8945	1529.99
63	8956	1530.12
64	8965	1529.99
68	8988	1530.12
61	9000	1530.12
79	9006	1529.99
65	9013	1529.99
63	9024	1530.12
64	9027	1529.99
64	9028	1529.99
64	9038	1530.12
64	9044	1530.12
64	9051	1530.12
64	9057	1529.99
64	9068	1530.25
65	9073	1529.99
65	9077	1530.12
78	9080	1529.99
64	9087	1529.99
64	9095	1529.99
65	9094	1529.99
63	9099	1529.99
65	9105	1529.99
63	9112	1530.12
64	9120	1530.12
66	9122	1529.99
62	9128	1530.12
64	9145	1530.12
64	9146	1529.99
80	9152	1529.99
63	9156	1530.12
65	9162	1530.12
64	9166	1529.99
63	9174	1530.12
65	9174	1530.12
63	9192	1529.99
64	9185	1529.99
65	9192	1529.99
63	9199	1529.99
65	9208	1529.99
63	9207	1530.12
80	9219	1529.99
64	9221	1530.12
64	9230	1530.12
64	9233	1529.99
64	9241	1530.12
65	9240	1529.99
63	9244	1530.12
65	9243	1530.12
63	9261	1530.12
64	9259	1530.12
63	9263	1530.12
64	9268	1529.99
81	9271	1530.12
64	9280	1530.12
64	9287	1530.12
64	9288	1529.99
63	9288	1529.99
65	9299	1529.99
65	9303	1529.99
62	9306	1529.87
64	9317	1529.99
64	9317	1530.12
64	9320	1529.99
65	9322	1530.12
63	9327	1530.12
80	9338	1529.99
64	9335	1530.12
64	9337	1530.12
64	9350	1529.87
64	9352	1530.12
64	9349	1529.99
64	9354	1529.99
64	9362	1530.12
63	9364	1530.12
65	9365	1530.12
64	9370	1529.99
64	9368	1530.12
79	9377	1530.12
65	9378	1530.12
63	9383	1530.12
65	9385	1530.12
64	9388	1530.12
64	9393	1530.12
63	9390	1530.12
65	9391	1530.12
64	9402	1530.12
63	9409	1530.12
64	9409	1529.99
64	9406	1529.87
81	9413	1530.12
63	9421	1530.12
64	9421	1530.25
65	9419	1530.12
64	9423	1530.12
63	9425	1530.12
65	9431	1530.12
63	9434	1530.12
64	9437	1529.99
64	9443	1530.25
64	9442	1530.12
64	9442	1530.12
80	9448	1530.12
63	9451	1530.12
65	9458	1530.12
63	9454	1530.12
65	9460	1530.12
64	9467	1530.12
64	9475	1530.12
64	9478	1530.12
64	9480	1529.99
63	9485	1530.12
64	9489	1530.12
65	9490	1530.12
80	9491	1530.12
64	9497	1530.25
64	9504	1529.99
63	9504	1530.12
64	9512	1530.12
64	9520	1530.12
64	9519	1529.99
64	9527	1530.12
64	9541	1530.12
64	9545	1530.25
64	9550	1530.12
65	9562	1530.12
79	9562	1530.12
64	9566	1530.12
64	9570	1530.12
64	9587	1529.99
64	9586	1530.12
64	9595	1530.12
64	9602	1530.12
65	9615	1530.12
63	9613	1530.25
64	9622	1530.12
65	9631	1530.12
62	9632	1530.25
81	9643	1530.25
64	9651	1530.25
63	9661	1529.99
64	9673	1530.12
65	9679	1530.12
64	9700	1530.12
64	9712	1530.12
63	9721	1530.12
64	9728	1530.12
65	9742	1530.12
70	9757	1530.25
57	9762	1530.12
80	9794	1529.99
64	9834	1530.25
64	9869	1530.12
64	9894	1530.12
64	9918	1530.12
64	9942	1530.12
64	9967	1530.12
64	9989	1530.12
64	10008	1530.12
64	10024	1530.12
64	10030	1530.25
63	10048	1530.12
81	10059	1530.25
65	10070	1530.25
62	10081	1530.25
66	10093	1530.12
63	10105	1530.12
64	10122	1530.12
63	10133	1530.12
65	10145	1530.25
64	10160	1530.12
64	10172	1530.12
64	10189	1530.12
63	10203	1529.99
80	10216	1530.12
64	10237	1530.12
64	10255	1530.25
64	10270	1530.38
64	10282	1530.38
65	10297	1530.63
63	10309	1530.89
64	10315	1532.04
64	10328	1532.68
64	10330	1533.06
64	10341	1533.7
64	10353	1534.47
80	10367	1535.11
65	10373	1536
63	10389	1536.9
64	10396	1538.05
64	10410	1538.94
64	10426	1540.22
64	10458	1541.37
63	10429	1542.65
64	10073	1543.93
64	9846	1545.33
65	9643	1546.99
64	9540	1548.78
80	9426	1550.7
63	9298	1552.87
64	9147	1555.3
65	8980	1557.99
64	7534	1560.67
63	7211	1560.29
64	7286	1549.42
64	7372	1523.09
64	7557	1522.84
65	7601	1523.48
63	7645	1524.5
64	7662	1525.9
80	7667	1527.57
64	7665	1528.97
64	7655	1530.38
65	7650	1531.02
64	7642	1529.23
63	7649	1526.54
65	7651	1523.48
64	7647	1520.03
63	7633	1516.32
64	7616	1512.61
64	7596	1509.29
64	7574	1505.84
80	7555	1503.15
64	7538	1500.98
64	7521	1499.58
64	7501	1498.81
64	7465	1498.81
64	7392	1499.19
64	7267	1499.96
64	7167	1500.98
64	7074	1502.39
64	7053	1503.92
64	7053	1505.71
64	7065	1507.24
80	7079	1509.29
63	7108	1510.82
65	7142	1512.36
64	7190	1513.89
63	7234	1515.3
65	7280	1516.32
64	7316	1517.47
63	7359	1518.24
65	7403	1519.13
63	7477	1520.28
64	7632	1522.07
64	7780	1524.37
81	7915	1526.29
63	8000	1527.31
64	8056	1527.57
64	8117	1527.82
64	8175	1528.21
64	8227	1528.33
64	8275	1528.46
64	8321	1528.46
63	8382	1528.46
65	8430	1528.46
64	8496	1528.46
64	8537	1528.59
63	8573	1528.72
81	8601	1528.72
64	8617	1528.72
63	8635	1528.84
65	8650	1528.84
64	8669	1528.84
64	8675	1528.97
64	8686	1528.97
64	8694	1528.97
64	8702	1528.97
63	8704	1528.97
64	8712	1528.97
65	8717	1528.97
79	8723	1529.1
65	8743	1528.97
63	8754	1528.97
64	8756	1529.23
64	8764	1529.23
65	8773	1529.23
63	8787	1529.36
65	8795	1529.48
63	8797	1529.61
64	8801	1529.61
64	8811	1529.87
64	8813	1529.99
80	8820	1530.12
64	8820	1530.25
63	8829	1530.38
65	8834	1530.51
64	8829	1530.76
64	8850	1531.02
64	8855	1531.02
64	8871	1531.27
63	8888	1531.53
64	8899	1531.53
64	8908	1531.66
64	8922	1531.91
81	8932	1532.04
63	8949	1532.17
65	8964	1532.3
63	8971	1532.55
65	8976	1532.68
63	8990	1532.68
64	8999	1533.06
64	9001	1532.93
64	9006	1533.32
64	9009	1533.45
64	9017	1533.45
64	9016	1533.57
80	9023	1533.83
64	9027	1533.83
64	9031	1533.96
64	9040	1534.08
64	9036	1534.21
65	9040	1534.34
62	9052	1534.34
65	9059	1534.47
64	9069	1534.6
63	9076	1534.6
65	9086	1534.72
65	9091	1534.72
79	9098	1534.72
64	9108	1534.98
64	9113	1534.98
64	9119	1535.11
63	9126	1535.11
64	9138	1535.23
64	9137	1535.36
65	9146	1535.36
64	9154	1535.36
63	9158	1535.49
64	9161	1535.36
64	9169	1535.36
80	9182	1535.36
64	9179	1535.36
64	9187	1535.49
65	9189	1535.36
63	9195	1535.36
64	9206	1535.36
64	9208	1535.49
64	9210	1535.36
65	9216	1535.36
63	9223	1535.36
64	9224	1535.49
64	9221	1535.36
80	9233	1535.36
64	9229	1535.36
64	9236	1535.49
64	9240	1535.36
64	9249	1535.36
63	9253	1535.36
65	9258	1535.49
64	9258	1535.36
63	9264	1535.49
65	9268	1535.49
66	9271	1535.36
63	9270	1535.36
79	9279	1535.36
64	9283	1535.36
63	9295	1535.49
65	9291	1535.49
64	9300	1535.49
63	9295	1535.49
64	9307	1535.36
65	9308	1535.36
63	9315	1535.36
64	9319	1535.36
64	9331	1535.36
64	9323	1535.36
80	9335	1535.36
65	9336	1535.36
64	9335	1535.36
62	9342	1535.49
64	9343	1535.49
65	9347	1535.36
64	9350	1535.36
64	9354	1535.36
64	9357	1535.36
65	9363	1535.49
63	9367	1535.49
63	9360	1535.36
80	9367	1535.36
64	9372	1535.36
65	9373	1535.49
64	9377	1535.49
64	9384	1535.49
64	9381	1535.36
64	9390	1535.49
64	9389	1535.36
63	9398	1535.49
64	9399	1535.49
65	9404	1535.49
63	9400	1535.49
80	9408	1535.49
64	9408	1535.49
64	9409	1535.36
64	9413	1535.49
64	9413	1535.36
64	9421	1535.49
64	9421	1535.36
64	9422	1535.36
64	9422	1535.49
64	9427	1535.49
63	9429	1535.49
64	9433	1535.49
81	9443	1535.49
64	9442	1535.49
63	9440	1535.36
64	9444	1535.36
64	9448	1535.36
65	9455	1535.49
63	9459	1535.49
64	9471	1535.49
65	9475	1535.49
64	9485	1535.36
64	9492	1535.36
63	9496	1535.36
81	9507	1535.36
63	9508	1535.49
64	9516	1535.36
64	9519	1535.36
64	9527	1535.36
65	9532	1535.36
64	9540	1535.49
66	9544	1535.36
61	9552	1535.49
64	9563	1535.36
64	9562	1535.49
64	9569	1535.49
80	9580	1535.49
66	9585	1535.36
62	9595	1535.36
64	9599	1535.36
63	9606	1535.36
65	9614	1535.36
64	9625	1535.36
64	9625	1535.49
64	9638	1535.49
64	9636	1535.49
64	9648	1535.36
64	9658	1535.49
80	9663	1535.49
63	9672	1535.36
64	9682	1535.36
65	9690	1535.49
64	9693	1535.49
63	9708	1535.36
65	9713	1535.36
64	9721	1535.49
64	9730	1535.36
63	9736	1535.36
64	9742	1535.36
65	9757	1535.36
64	9767	1535.36
79	9772	1535.49
65	9788	1535.49
63	9791	1535.49
64	9805	1535.49
64	9813	1535.36
64	9828	1535.36
63	9837	1535.49
65	9845	1535.36
64	9857	1535.49
64	9872	1535.36
64	9886	1535.49
64	9896	1535.36
80	9913	1535.49
64	9921	1535.49
64	9936	1535.49
63	9949	1535.36
64	9963	1535.36
67	9978	1535.62
62	9991	1535.87
64	9996	1536.26
63	10011	1536.64
65	10018	1537.02
63	10027	1537.54
65	10031	1538.17
79	10038	1538.69
64	10044	1539.45
64	10047	1540.09
64	10054	1541.24
64	10051	1542.14
64	10047	1543.16
64	10038	1544.44
64	9996	1545.59
64	9947	1546.99
64	9865	1548.27
64	9732	1549.68
64	9554	1551.21
80	9475	1553
64	9364	1555.05
64	9251	1557.22
64	9117	1559.65
63	8957	1561.95
65	7733	1564.76
64	7185	1565.78
63	7274	1560.93
65	7347	1523.86
64	7530	1523.09
64	7594	1523.35
63	7621	1524.24
80	7647	1525.52
64	7657	1527.05
65	7653	1528.59
63	7647	1529.99
64	7638	1531.02
64	7634	1529.87
65	7638	1527.31
63	7636	1524.5
64	7633	1521.18
64	7623	1517.47
64	7612	1513.89
64	7592	1510.31
79	7573	1506.86
65	7551	1504.05
64	7533	1501.62
64	7515	1499.96
64	7490	1498.94
63	7457	1498.55
65	7410	1498.81
63	7294	1499.32
65	7184	1500.34
63	7099	1501.62
65	7053	1503.15
64	7048	1504.69
79	7045	1506.48
64	7067	1508.27
64	7089	1510.06
64	7123	1511.85
64	7164	1513.63
64	7213	1515.42
64	7253	1517.21
65	7291	1518.87
63	7332	1520.41
65	7373	1521.94
63	7429	1523.35
64	7546	1525.01
80	7696	1526.42
64	7856	1527.57
64	7959	1528.84
63	8018	1530.12
65	8080	1530.89
64	8146	1531.53
64	8214	1532.04
64	8267	1532.3
64	8313	1532.55
64	8361	1532.81
63	8420	1532.93
65	8488	1533.06
80	8530	1533.45
64	8562	1533.45
64	8586	1533.57
64	8604	1533.7
64	8624	1533.7
65	8638	1533.83
63	8655	1534.08
63	8666	1534.21
64	8673	1534.08
65	8681	1534.21
66	8694	1534.34
61	8691	1534.6
80	8701	1534.6
64	8711	1534.72
64	8708	1534.72
64	8735	1534.6
66	8735	1534.72
62	8742	1534.85
64	8754	1534.98
64	8760	1535.11
64	8773	1535.11
67	8782	1535.11
60	8786	1535.11
70	8792	1535.11
74	8796	1535.23
64	8812	1535.23
65	8808	1535.36
64	8817	1535.36
63	8824	1535.36
64	8822	1535.36
64	8827	1535.36
65	8836	1535.49
64	8847	1535.62
64	8861	1535.62
63	8869	1535.62
64	8878	1535.62
80	8885	1535.62
65	8898	1535.75
63	8909	1535.62
64	8923	1535.62
64	8942	1535.62
64	8948	1535.75
65	8955	1535.75
63	8971	1535.75
64	8980	1535.75
65	8980	1535.75
62	8986	1535.75
65	8991	1535.75
80	8993	1535.75
64	9003	1535.75
64	9004	1535.75
64	9004	1535.75
64	9013	1535.87
64	9018	1535.87
63	9021	1535.75
65	9026	1535.87
64	9031	1535.87
64	9038	1535.75
64	9044	1535.75
64	9040	1535.75
80	9053	1535.75
63	9065	1535.75
65	9065	1535.87
64	9074	1535.62
63	9078	1535.75
64	9085	1535.75
65	9089	1535.75
63	9094	1535.87
64	9095	1535.75
64	9103	1535.75
64	9112	1535.75
64	9114	1535.75
80	9124	1535.75
64	9134	1535.62
64	9145	1535.75
65	9147	1535.75
63	9151	1535.75
64	9158	1535.87
65	9160	1535.87
64	9165	1535.75
63	9168	1535.75
64	9178	1535.75
64	9186	1535.75
64	9188	1535.75
79	9187	1535.75
64	9199	1535.75
65	9201	1535.75
64	9203	1535.75
95	9208	1535.75
32	9216	1535.75
74	9229	1535.75
54	9225	1535.75
65	9229	1535.75
63	9238	1535.75
65	9238	1535.75
63	9246	1535.75
80	9249	1535.62
65	9255	1535.75
63	9259	1535.75
64	9257	1535.75
64	9264	1535.75
64	9271	1535.75
64	9275	1535.75
64	9280	1535.75
64	9281	1535.87
64	9284	1535.75
64	9296	1535.75
64	9298	1535.62
64	9302	1535.75
80	9302	1535.62
64	9313	1535.75
64	9317	1535.75
64	9314	1535.75
64	9319	1535.75
64	9324	1535.87
64	9327	1535.75
64	9330	1535.87
64	9332	1535.75
63	9333	1535.75
64	9338	1535.75
65	9341	1535.75
79	9348	1535.75
65	9344	1535.75
63	9353	1535.87
64	9354	1535.87
64	9355	1535.75
64	9358	1535.75
64	9365	1535.75
64	9367	1535.75
64	9360	1535.62
64	9373	1535.75
64	9372	1535.87
64	9382	1535.75
80	9380	1535.62
64	9387	1535.62
64	9382	1535.62
64	9388	1535.62
64	9391	1535.75
64	9387	1535.75
63	9392	1535.75
65	9395	1535.75
64	9402	1535.75
64	9407	1535.75
63	9407	1535.75
64	9409	1535.87
81	9406	1535.75
64	9417	1535.75
64	9413	1535.75
63	9414	1535.87
65	9417	1535.75
63	9424	1535.75
64	9427	1535.87
65	9438	1535.75
64	9440	1535.75
63	9446	1535.62
64	9450	1535.75
64	9458	1535.75
80	9459	1535.75
65	9471	1535.62
63	9481	1535.87
64	9489	1535.87
64	9493	1535.87
64	9497	1535.75
64	9506	1535.75
63	9512	1535.75
65	9517	1535.75
64	9522	1535.87
64	9529	1535.75
64	9538	1535.75
80	9546	1535.87
63	9553	1535.75
65	9558	1535.62
63	9557	1535.75
65	9568	1535.87
64	9575	1535.75
63	9580	1535.75
65	9593	1535.75
64	9602	1535.75
64	9604	1535.75
65	9612	1535.75
62	9620	1535.75
80	9625	1535.62
64	9636	1535.75
64	9642	1535.87
64	9647	1535.62
64	9657	1535.87
64	9664	1535.75
64	9674	1535.75
64	9682	1535.87
64	9690	1535.75
64	9697	1535.75
65	9707	1535.75
63	9718	1535.75
80	9723	1535.62
64	9735	1535.75
63	9746	1535.75
65	9758	1535.75
63	9759	1535.75
65	9775	1535.75
64	9790	1535.75
63	9796	1535.75
65	9808	1535.75
64	9813	1535.75
64	9829	1535.75
63	9837	1535.75
81	9852	1535.75
64	9863	1535.75
63	9874	1535.75
64	9889	1535.75
64	9906	1535.75
65	9915	1535.75
63	9935	1535.75
64	9948	1535.87
64	9955	1536
64	9967	1536.39
64	9977	1536.77
64	9987	1537.15
80	9998	1537.66
64	9999	1538.17
64	10007	1538.81
64	10012	1539.45
64	10018	1540.22
64	10021	1541.11
64	10026	1542.01
64	10022	1543.16
64	10011	1544.18
64	9979	1545.46
64	9942	1546.74
64	9867	1548.14
79	9756	1549.42
65	9568	1550.83
64	9486	1552.75
63	9394	1554.66
64	9277	1556.84
64	9149	1559.14
65	8991	1561.82
64	8402	1564.25
63	7219	1566.42
64	7259	1562.97
65	7316	1524.37
63	7466	1522.71
80	7575	1522.71
64	7610	1523.48
65	7632	1524.88
63	7642	1526.16
64	7646	1527.57
64	7639	1529.1
64	7635	1530.25
64	7634	1529.1
64	7629	1526.54
64	7629	1523.73
64	7623	1520.41
64	7618	1516.7
80	7604	1513.12
64	7583	1509.54
64	7565	1506.35
64	7536	1503.54
63	7516	1501.11
64	7496	1499.7
65	7469	1498.68
64	7438	1498.55
63	7347	1498.81
64	7245	1499.58
65	7147	1500.73
63	7055	1501.88
80	7032	1503.41
65	7035	1505.07
63	7038	1506.99
64	7057	1508.78
64	7088	1510.57
64	7121	1512.36
65	7165	1514.02
63	7212	1515.42
64	7253	1517.09
64	7294	1518.62
64	7331	1520.28
64	7369	1522.07
80	7435	1523.86
64	7568	1525.27
65	7712	1526.8
63	7869	1528.08
64	7970	1529.36
64	8034	1530.25
64	8099	1531.02
64	8173	1531.4
63	8235	1531.53
65	8288	1531.78
64	8347	1531.91
63	8395	1531.91
80	8467	1532.17
64	8508	1532.17
65	8541	1532.17
64	8569	1532.42
63	8589	1532.42
64	8609	1532.55
65	8633	1532.81
63	8644	1532.81
64	8661	1532.93
64	8673	1533.06
64	8683	1533.19
64	8688	1533.19
81	8693	1533.32
63	8702	1533.45
64	8711	1533.32
64	8720	1533.45
64	8736	1533.57
64	8747	1533.7
64	8755	1533.83
63	8762	1533.83
65	8770	1533.96
63	8787	1534.08
64	8789	1534.08
65	8795	1534.21
79	8800	1534.21
64	8806	1534.34
65	8807	1534.34
63	8811	1534.47
65	8815	1534.6
64	8820	1534.6
63	8832	1534.72
65	8842	1534.72
63	8853	1534.6
64	8861	1534.85
64	8866	1534.85
64	8879	1534.85
64	8887	1534.85
80	8905	1534.98
64	8916	1535.11
64	8932	1535.11
64	8945	1535.11
64	8954	1535.23
65	8957	1535.23
63	8970	1535.36
64	8976	1535.49
64	8982	1535.49
64	8989	1535.36
64	8991	1535.49
64	8995	1535.49
80	8999	1535.62
63	8992	1535.62
64	9004	1535.62
65	9009	1535.75
64	9018	1535.75
64	9017	1535.87
64	9017	1535.75
64	9022	1535.87
63	9029	1536
65	9034	1535.87
64	9040	1535.87
63	9041	1536
80	9048	1535.87
64	9052	1536
65	9066	1536.13
64	9067	1536
63	9072	1536.13
64	9074	1536.13
64	9081	1536.13
64	9089	1536.13
64	9096	1536.26
64	9094	1536.26
64	9101	1536.26
64	9107	1536
80	9109	1536.26
64	9120	1536.13
64	9114	1536.26
64	9123	1536.26
63	9134	1536.26
65	9129	1536.26
64	9133	1536.39
64	9145	1536.26
64	9145	1536.26
63	9158	1536.13
65	9151	1536.26
64	9163	1536.39
79	9169	1536.39
65	9176	1536.26
64	9181	1536.26
63	9186	1536.26
64	9194	1536.39
65	9201	1536.26
63	9203	1536.26
64	9203	1536.26
65	9220	1536.39
63	9211	1536.39
64	9223	1536.26
64	9226	1536.26
80	9228	1536.26
64	9229	1536.39
64	9232	1536.26
64	9236	1536.26
64	9239	1536.26
64	9250	1536.26
63	9250	1536.39
65	9257	1536.26
64	9267	1536.26
63	9268	1536.39
65	9272	1536.26
64	9275	1536.39
79	9283	1536.26
64	9285	1536.26
65	9291	1536.26
64	9293	1536.13
64	9297	1536.39
63	9294	1536.26
65	9303	1536.26
64	9306	1536.26
63	9305	1536.26
64	9312	1536.39
64	9314	1536.26
64	9311	1536.26
80	9320	1536.26
65	9323	1536.26
63	9329	1536.26
64	9330	1536.26
64	9334	1536.39
64	9334	1536.26
64	9342	1536.26
64	9345	1536.26
64	9354	1536.26
64	9350	1536.26
64	9350	1536.26
64	9368	1536.39
80	9359	1536.13
64	9371	1536.26
65	9370	1536.26
63	9370	1536.26
63	9374	1536.26
65	9374	1536.39
63	9383	1536.13
64	9383	1536.39
65	9384	1536.26
63	9393	1536.26
65	9390	1536.39
64	9392	1536.26
80	9401	1536.26
63	9400	1536.26
65	9405	1536.26
64	9401	1536.26
63	9406	1536.39
65	9408	1536.26
64	9410	1536.39
63	9425	1536.39
64	9421	1536.26
65	9433	1536.39
63	9435	1536.26
64	9440	1536.26
80	9446	1536.26
64	9457	1536.39
65	9462	1536.26
63	9471	1536.39
64	9479	1536.26
64	9485	1536.26
63	9487	1536.26
64	9494	1536.26
65	9499	1536.39
64	9505	1536.13
63	9514	1536.26
64	9520	1536.39
80	9526	1536.26
65	9535	1536.26
64	9532	1536.39
63	9541	1536.26
65	9553	1536.39
63	9559	1536.26
64	9561	1536.26
64	9574	1536.26
65	9577	1536.26
63	9581	1536.26
64	9595	1536.26
64	9598	1536.26
81	9606	1536.26
63	9615	1536.26
65	9619	1536.26
64	9628	1536.26
63	9635	1536.26
64	9644	1536.26
64	9651	1536.26
64	9655	1536.39
64	9667	1536.26
64	9674	1536.26
64	9686	1536.26
64	9697	1536.26
80	9703	1536.26
64	9711	1536.26
64	9721	1536.13
64	9731	1536.26
64	9740	1536.26
63	9747	1536.39
65	9759	1536.39
64	9768	1536.26
64	9776	1536.26
63	9794	1536.39
64	9800	1536.39
64	9814	1536.26
80	9827	1536.26
66	9833	1536.26
63	9844	1536.26
63	9863	1536.26
65	9873	1536.39
63	9892	1536.26
65	9897	1536.26
63	9916	1536.39
65	9927	1536.39
63	9938	1536.51
64	9950	1536.77
64	9959	1537.02
64	9972	1537.41
80	9978	1537.92
64	9981	1538.43
64	9991	1539.07
64	9994	1539.58
64	10007	1540.35
64	10007	1541.37
64	10012	1542.14
64	10011	1543.16
63	10003	1544.31
65	9979	1545.59
64	9941	1546.61
64	9885	1548.02
80	9793	1549.29
63	9618	1550.83
65	9513	1552.36
64	9435	1554.41
64	9330	1556.45
63	9208	1558.75
65	9052	1561.18
63	8898	1563.86
64	7398	1566.55
64	7236	1564.5
65	7296	1554.66
63	7384	1522.84
80	7554	1522.45
64	7599	1522.84
64	7618	1523.86
66	7640	1525.39
62	7639	1526.54
64	7641	1528.08
64	7628	1529.36
64	7625	1529.87
64	7622	1527.95
64	7625	1525.52
64	7625	1522.58
64	7622	1519.13
80	7612	1515.55
63	7597	1511.72
65	7571	1508.27
64	7548	1505.2
64	7526	1502.39
63	7511	1500.21
65	7482	1498.94
63	7455	1498.04
64	7414	1497.91
65	7325	1498.42
63	7220	1499.06
65	7129	1500.34
79	7045	1501.36
64	7035	1502.9
65	7028	1504.69
63	7038	1506.48
64	7057	1508.52
64	7085	1510.31
64	7119	1511.97
65	7163	1513.76
63	7210	1515.3
64	7256	1516.7
65	7294	1518.24
63	7331	1519.77
80	7372	1521.43
64	7441	1523.35
64	7585	1525.14
64	7732	1526.93
64	7878	1528.33
64	7968	1529.36
64	8025	1530.51
64	8079	1531.14
64	8152	1531.78
64	8231	1532.17
64	8276	1532.42
63	8333	1532.55
80	8383	1532.68
65	8454	1532.93
64	8497	1533.06
63	8539	1533.19
65	8567	1533.19
63	8594	1533.32
64	8608	1533.45
64	8631	1533.57
64	8643	1533.57
64	8658	1533.57
65	8672	1533.83
63	8680	1533.96
80	8691	1533.96
64	8693	1533.96
64	8705	1534.21
64	8712	1534.21
64	8731	1534.34
64	8734	1534.34
64	8744	1534.34
65	8753	1534.47
63	8765	1534.47
63	8769	1534.6
65	8779	1534.6
64	8784	1534.72
80	8790	1534.85
64	8790	1534.98
64	8797	1534.98
64	8803	1534.98
64	8799	1534.98
64	8809	1535.11
64	8810	1535.11
64	8822	1535.23
64	8830	1535.11
64	8835	1535.36
64	8844	1535.36
63	8850	1535.36
81	8867	1535.49
63	8882	1535.62
64	8896	1535.49
65	8908	1535.62
63	8930	1535.49
65	8938	1535.62
63	8948	1535.62
65	8958	1535.87
63	8964	1535.75
64	8970	1535.75
65	8977	1535.87
63	8978	1536
80	8985	1535.87
64	8986	1536
64	8991	1536
64	9001	1536.13
64	9002	1536
65	9005	1536
63	9011	1536.13
64	9012	1536
64	9016	1536.13
63	9018	1536
64	9030	1536.13
64	9029	1536.26
81	9035	1536.26
64	9033	1536.26
63	9043	1536.26
65	9053	1536.26
63	9057	1536.26
65	9058	1536.39
63	9068	1536.26
64	9075	1536.26
64	9079	1536.39
65	9086	1536.51
63	9087	1536.51
64	9093	1536.51
80	9098	1536.51
64	9100	1536.64
64	9101	1536.51
64	9107	1536.51
65	9115	1536.51
63	9119	1536.64
64	9131	1536.64
64	9129	1536.64
64	9127	1536.51
65	9137	1536.64
63	9143	1536.64
64	9143	1536.64
80	9151	1536.64
64	9151	1536.64
64	9155	1536.64
63	9163	1536.77
65	9155	1536.64
64	9164	1536.64
64	9177	1536.51
64	9171	1536.51
63	9184	1536.77
65	9189	1536.77
63	9192	1536.64
64	9194	1536.64
64	9210	1536.64
80	9201	1536.64
64	9221	1536.64
64	9221	1536.77
64	9227	1536.77
65	9228	1536.64
63	9232	1536.64
64	9241	1536.64
65	9247	1536.64
63	9250	1536.64
64	9248	1536.64
64	9265	1536.64
64	9264	1536.64
80	9275	1536.64
64	9272	1536.64
64	9284	1536.64
64	9287	1536.77
63	9284	1536.77
65	9295	1536.77
64	9296	1536.64
63	9297	1536.64
65	9302	1536.77
63	9306	1536.64
65	9311	1536.64
64	9313	1536.77
79	9317	1536.64
65	9319	1536.64
64	9321	1536.64
64	9328	1536.64
63	9330	1536.64
65	9335	1536.77
63	9339	1536.77
64	9342	1536.64
64	9345	1536.64
65	9345	1536.77
63	9345	1536.64
64	9355	1536.64
80	9355	1536.64
64	9360	1536.64
64	9366	1536.64
64	9370	1536.64
64	9372	1536.77
64	9375	1536.64
65	9375	1536.64
63	9373	1536.64
64	9384	1536.64
64	9383	1536.64
64	9388	1536.64
64	9396	1536.64
80	9394	1536.64
64	9396	1536.64
64	9398	1536.64
64	9399	1536.64
63	9402	1536.77
64	9401	1536.64
64	9405	1536.64
65	9409	1536.64
64	9415	1536.64
63	9421	1536.77
65	9421	1536.64
63	9429	1536.64
81	9432	1536.64
64	9446	1536.64
64	9448	1536.64
64	9460	1536.77
64	9464	1536.64
63	9472	1536.64
64	9475	1536.64
65	9484	1536.64
63	9488	1536.64
64	9495	1536.64
64	9502	1536.77
65	9501	1536.77
78	9510	1536.64
65	9521	1536.64
64	9526	1536.64
63	9534	1536.64
64	9532	1536.77
66	9544	1536.64
62	9555	1536.64
65	9559	1536.64
63	9562	1536.77
65	9569	1536.64
64	9571	1536.64
64	9582	1536.64
80	9592	1536.77
64	9598	1536.64
63	9609	1536.64
65	9620	1536.64
63	9614	1536.64
65	9625	1536.64
63	9634	1536.51
64	9644	1536.64
64	9651	1536.77
64	9659	1536.64
65	9667	1536.64
63	9676	1536.77
80	9684	1536.77
64	9701	1536.64
64	9706	1536.64
64	9710	1536.64
64	9720	1536.64
64	9730	1536.64
64	9738	1536.77
64	9750	1536.64
64	9755	1536.64
64	9772	1536.64
63	9779	1536.64
65	9788	1536.64
79	9807	1536.64
65	9814	1536.64
64	9830	1536.77
64	9843	1536.77
63	9856	1536.64
64	9864	1536.64
64	9881	1536.64
64	9894	1536.77
65	9911	1536.64
63	9921	1536.77
65	9935	1537.02
63	9946	1537.28
80	9954	1537.54
64	9960	1538.05
65	9970	1538.56
63	9980	1539.07
64	9983	1539.71
64	9988	1540.48
64	9992	1541.11
64	9995	1542.01
64	9997	1542.9
64	9997	1543.93
64	9984	1545.2
64	9948	1546.35
80	9905	1547.76
64	9836	1549.04
64	9727	1550.44
64	9557	1551.98
64	9478	1553.77
64	9382	1555.68
64	9273	1557.86
63	9142	1560.29
65	8988	1562.84
64	8242	1565.4
63	7208	1566.8
64	7259	1564.89
81	7320	1523.22
63	7471	1521.94
64	7568	1521.81
64	7598	1522.58
65	7635	1523.86
64	7639	1525.27
63	7643	1526.54
64	7633	1527.82
64	7626	1528.84
64	7619	1528.33
64	7624	1526.03
65	7621	1523.22
79	7621	1520.15
64	7617	1516.57
64	7608	1513
64	7583	1509.42
64	7560	1506.09
63	7535	1503.15
65	7518	1500.73
64	7495	1498.94
64	7473	1497.91
64	7438	1497.53
63	7373	1497.66
64	7268	1498.17
80	7170	1499.19
64	7079	1500.34
64	7029	1501.75
64	7032	1503.28
64	7037	1504.94
64	7041	1506.86
64	7070	1508.91
65	7099	1510.57
63	7138	1512.23
64	7180	1513.76
64	7228	1515.3
64	7272	1516.7
81	7308	1518.36
64	7348	1519.9
63	7402	1521.43
65	7502	1523.35
63	7658	1525.14
65	7823	1526.93
63	7928	1528.21
64	7999	1529.48
64	8050	1530.38
64	8107	1531.14
64	8185	1531.53
64	8248	1531.91
64	8303	1532.17
80	8358	1532.42
64	8409	1532.68
63	8472	1532.68
65	8519	1532.81
64	8556	1532.93
64	8579	1532.93
64	8603	1532.93
63	8624	1533.06
64	8636	1533.06
64	8654	1533.19
65	8664	1533.19
63	8667	1533.19
81	8678	1533.32
63	8688	1533.32
64	8700	1533.45
64	8702	1533.45
65	8720	1533.57
63	8730	1533.57
64	8738	1533.7
64	8746	1533.7
64	8748	1533.83
64	8762	1533.7
65	8772	1533.96
63	8780	1533.96
80	8783	1533.96
64	8785	1534.08
64	8794	1534.21
63	8796	1534.21
65	8800	1534.34
63	8802	1534.34
65	8807	1534.34
64	8812	1534.6
63	8825	1534.47
64	8831	1534.47
65	8839	1534.6
64	8854	1534.6
79	8857	1534.72
65	8875	1534.72
63	8891	1534.85
65	8903	1534.85
63	8923	1534.85
65	8934	1534.98
63	8941	1535.11
64	8954	1535.11
64	8958	1535.11
64	8960	1535.23
64	8970	1535.23
64	8973	1535.23
80	8983	1535.36
64	8978	1535.36
64	8987	1535.36
64	8987	1535.36
64	9002	1535.49
64	8998	1535.49
64	9003	1535.62
64	9007	1535.62
64	9016	1535.62
64	9018	1535.62
64	9021	1535.62
64	9021	1535.62
80	9034	1535.75
64	9039	1535.75
64	9043	1535.75
64	9042	1535.87
64	9056	1536
64	9058	1535.87
63	9063	1536
64	9062	1536
64	9071	1536.13
64	9079	1536
65	9077	1536
63	9087	1536
80	9090	1536.13
64	9097	1536.26
65	9103	1536.13
63	9103	1536.26
64	9107	1536.26
64	9109	1536.26
64	9115	1536.39
64	9122	1536.39
64	9120	1536.26
64	9127	1536.39
64	9136	1536.26
64	9134	1536.39
80	9137	1536.39
64	9146	1536.39
64	9147	1536.51
63	9155	1536.39
64	9148	1536.51
65	9159	1536.64
63	9166	1536.51
64	9168	1536.51
65	9172	1536.51
64	9168	1536.51
63	9181	1536.51
65	9185	1536.64
79	9182	1536.64
65	9197	1536.64
64	9201	1536.64
63	9208	1536.77
65	9214	1536.64
63	9215	1536.64
65	9216	1536.77
64	9227	1536.9
63	9232	1536.77
64	9243	1536.77
64	9244	1536.9
64	9249	1536.9
80	9260	1536.77
64	9268	1536.77
64	9267	1536.77
64	9274	1536.77
64	9276	1536.64
64	9279	1536.77
64	9288	1536.77
64	9296	1536.9
64	9293	1536.9
64	9299	1536.77
64	9295	1536.77
64	9305	1536.77
79	9313	1536.77
65	9317	1536.77
63	9319	1536.77
65	9316	1536.64
64	9325	1536.9
63	9325	1536.9
65	9330	1536.77
64	9334	1536.9
63	9329	1536.9
64	9335	1536.9
64	9343	1536.77
64	9345	1536.77
80	9344	1536.77
64	9349	1536.77
64	9348	1536.77
64	9357	1536.77
64	9353	1536.77
64	9363	1536.77
64	9365	1536.77
64	9367	1536.9
64	9362	1536.77
64	9364	1536.77
64	9372	1536.77
63	9376	1536.77
81	9376	1536.77
64	9383	1536.77
64	9385	1536.9
64	9385	1536.77
64	9392	1536.77
64	9400	1536.77
64	9393	1536.77
64	9390	1536.77
63	9398	1536.77
65	9403	1536.77
64	9408	1536.77
64	9413	1536.9
79	9414	1536.9
64	9421	1536.77
64	9429	1536.77
64	9434	1536.77
64	9438	1536.77
64	9444	1536.77
64	9453	1536.77
65	9462	1536.77
63	9471	1536.77
64	9477	1536.9
64	9482	1536.64
64	9488	1536.9
80	9491	1536.77
64	9497	1536.64
64	9501	1536.77
64	9512	1536.77
64	9518	1536.77
63	9524	1536.77
65	9533	1536.77
64	9533	1536.77
63	9543	1536.9
65	9545	1536.77
64	9553	1536.9
64	9562	1536.9
79	9568	1536.77
65	9577	1536.77
64	9587	1536.77
64	9589	1536.9
64	9590	1536.77
64	9601	1536.9
63	9610	1536.77
64	9613	1536.64
65	9627	1536.77
63	9632	1536.77
64	9639	1536.9
64	9647	1536.77
64	9657	1536.9
80	9664	1536.77
64	9677	1536.77
64	9680	1536.77
65	9690	1536.77
63	9697	1536.77
64	9713	1536.77
64	9719	1536.77
64	9730	1536.9
64	9736	1536.77
64	9751	1536.77
63	9759	1536.77
65	9772	1536.77
80	9782	1536.9
63	9791	1536.77
64	9804	1536.9
64	9815	1536.9
65	9829	1536.64
63	9843	1536.77
65	9855	1536.77
64	9868	1536.77
63	9884	1536.77
65	9893	1536.77
63	9912	1537.02
65	9922	1537.02
80	9930	1537.41
64	9942	1537.79
64	9951	1538.17
63	9960	1538.69
64	9962	1539.32
64	9970	1539.84
64	9977	1540.48
64	9979	1541.37
64	9985	1542.14
64	9988	1543.03
64	9987	1544.05
64	9970	1545.46
80	9940	1546.48
64	9902	1547.76
64	9827	1549.17
64	9725	1550.57
63	9566	1551.98
65	9485	1553.77
64	9395	1555.81
63	9284	1557.99
65	9153	1560.29
63	9003	1562.97
64	8162	1565.65
65	7204	1566.93
79	7260	1566.42
65	7324	1523.22
63	7469	1521.94
64	7566	1521.81
64	7595	1522.58
65	7630	1523.73
64	7633	1525.27
63	7633	1526.42
64	7626	1527.69
64	7616	1528.84
64	7611	1528.21
64	7614	1525.78
81	7618	1523.22
63	7612	1520.03
64	7603	1516.57
64	7598	1512.87
64	7574	1509.29
64	7549	1506.09
64	7526	1503.03
64	7505	1499.32
64	7486	1497.4
64	7456	1496.25
64	7422	1495.61
63	7345	1495.61
81	7249	1496.38
64	7156	1497.15
64	7064	1498.3
64	7014	1499.83
64	7015	1501.36
64	7016	1503.28
64	7032	1505.2
63	7058	1506.99
64	7090	1508.78
65	7131	1510.31
64	7178	1511.72
64	7223	1513.38
80	7260	1514.91
63	7301	1516.57
64	7336	1518.24
64	7395	1520.28
64	7480	1522.84
64	7636	1525.01
64	7793	1526.67
65	7915	1528.21
63	7988	1529.48
64	8050	1530.51
64	8098	1531.14
64	8156	1531.66
81	8234	1532.04
63	8294	1532.3
64	8347	1532.68
64	8399	1532.81
64	8462	1532.93
63	8510	1533.06
65	8541	1533.19
64	8569	1533.32
64	8595	1533.32
64	8616	1533.45
64	8630	1533.45
64	8644	1533.45
79	8657	1533.57
64	8666	1533.57
64	8674	1533.83
64	8679	1533.83
65	8686	1533.7
63	8690	1533.83
64	8701	1533.96
65	8717	1533.96
63	8728	1534.08
65	8736	1534.21
64	8746	1534.21
63	8749	1534.34
80	8755	1534.47
64	8771	1534.47
64	8764	1534.6
64	8775	1534.6
64	8782	1534.72
64	8785	1534.85
64	8793	1534.85
64	8790	1534.98
64	8798	1534.85
64	8795	1535.11
63	8807	1535.11
65	8805	1535.23
79	8824	1535.23
65	8836	1535.23
64	8838	1535.36
64	8849	1535.23
64	8859	1535.49
64	8880	1535.36
64	8891	1535.49
63	8909	1535.49
64	8919	1535.49
64	8936	1535.62
64	8940	1535.62
65	8953	1535.75
80	8958	1535.75
63	8960	1535.87
65	8965	1535.75
64	8975	1535.87
64	8976	1535.87
63	8988	1535.87
64	8987	1536
64	8992	1536
65	8995	1536.13
63	9003	1536.13
64	9002	1536.13
64	9004	1536.13
80	9007	1536.26
64	9014	1536.13
65	9022	1536
63	9029	1536.13
64	9028	1536.26
64	9040	1536.26
64	9046	1536.26
63	9044	1536.39
64	9052	1536.39
64	9051	1536.26
64	9061	1536.39
64	9062	1536.51
81	9070	1536.39
63	9072	1536.39
64	9075	1536.39
65	9075	1536.51
63	9083	1536.39
64	9090	1536.39
64	9092	1536.51
65	9095	1536.51
63	9108	1536.64
65	9103	1536.64
63	9107	1536.51
64	9120	1536.64
64	9119	1536.64
81	9126	1536.64
63	9127	1536.64
64	9127	1536.64
64	9142	1536.64
64	9137	1536.77
64	9148	1536.77
64	9147	1536.64
64	9157	1536.77
64	9158	1536.9
64	9159	1536.77
64	9161	1536.9
64	9166	1536.9
81	9176	1536.9
63	9174	1536.9
64	9177	1536.9
64	9183	1536.9
64	9189	1536.9
64	9195	1536.9
64	9197	1536.9
64	9203	1537.02
64	9208	1537.02
63	9205	1537.02
64	9205	1537.02
64	9217	1537.02
80	9222	1537.02
64	9223	1537.02
64	9229	1537.02
64	9233	1537.02
65	9242	1537.02
63	9240	1536.9
65	9250	1537.15
64	9255	1537.02
63	9266	1537.02
64	9264	1537.15
64	9273	1537.02
64	9279	1537.15
80	9283	1537.15
64	9279	1536.9
64	9293	1537.02
64	9287	1537.02
64	9300	1537.02
63	9305	1537.02
65	9306	1537.02
65	9306	1537.02
63	9311	1537.02
64	9317	1537.02
64	9321	1537.15
64	9323	1537.02
79	9328	1537.02
65	9329	1537.02
64	9330	1537.02
64	9334	1537.02
64	9334	1537.02
63	9341	1537.15
64	9342	1537.02
65	9345	1537.02
64	9350	1537.02
63	9349	1537.02
65	9356	1537.02
63	9354	1537.02
80	9356	1537.02
64	9371	1537.02
64	9363	1537.15
64	9370	1537.02
64	9365	1537.15
64	9375	1536.9
64	9373	1537.02
64	9376	1537.02
64	9383	1537.02
64	9380	1537.02
63	9390	1537.02
64	9390	1537.02
80	9395	1537.15
65	9396	1537.02
64	9407	1537.02
63	9410	1537.15
65	9417	1537.02
64	9433	1537.02
64	9436	1537.02
64	9442	1537.02
64	9449	1537.15
64	9458	1537.15
63	9460	1537.15
64	9465	1537.02
80	9473	1537.02
64	9477	1537.02
65	9485	1537.02
63	9487	1537.02
65	9498	1537.02
63	9499	1537.15
64	9507	1537.15
64	9517	1537.15
64	9517	1537.02
64	9527	1537.02
64	9536	1537.02
65	9540	1537.15
79	9547	1537.15
64	9555	1537.15
64	9560	1537.15
64	9566	1537.02
64	9576	1537.02
63	9580	1537.15
64	9589	1537.15
65	9601	1537.02
64	9602	1537.02
64	9609	1537.02
64	9621	1537.02
64	9626	1537.02
80	9635	1537.02
64	9641	1537.02
64	9653	1537.02
64	9660	1536.9
63	9671	1537.02
65	9679	1537.02
63	9683	1537.02
64	9694	1537.02
64	9704	1537.02
64	9716	1537.02
64	9722	1537.02
65	9731	1537.02
80	9743	1537.02
64	9755	1537.15
63	9765	1537.02
64	9775	1537.02
64	9785	1537.02
64	9795	1537.02
64	9815	1537.02
64	9821	1537.15
64	9838	1537.15
64	9849	1537.02
64	9865	1537.02
64	9878	1537.15
80	9894	1537.15
64	9906	1537.28
64	9915	1537.54
63	9925	1537.92
65	9936	1538.3
64	9941	1538.69
63	9950	1539.32
65	9955	1539.71
63	9962	1540.35
65	9965	1541.11
64	9974	1542.01
63	9971	1542.78
65	9980	1543.8
80	9969	1544.95
63	9938	1546.23
64	9909	1547.5
64	9853	1548.66
64	9770	1550.06
65	9622	1551.59
63	9526	1553.13
64	9444	1555.05
64	9336	1557.22
64	9227	1559.52
65	9074	1561.95
63	8917	1564.63
80	7449	1567.06
64	7248	1564.76
64	7290	1524.63
64	7361	1521.05
64	7527	1520.54
63	7577	1520.92
65	7611	1521.94
64	7627	1523.35
64	7628	1524.63
63	7630	1525.78
65	7617	1526.67
63	7611	1526.42
81	7609	1524.12
63	7613	1521.3
65	7613	1518.11
64	7609	1514.78
64	7595	1510.95
63	7579	1507.24
65	7553	1503.67
63	7526	1500.6
64	7500	1498.04
64	7479	1495.87
65	7449	1494.59
63	7410	1493.82
80	7348	1493.95
64	7242	1494.33
64	7134	1495.23
65	7047	1496.38
63	6991	1497.91
64	6996	1499.45
64	6999	1501.24
64	7016	1503.28
64	7033	1505.2
64	7065	1507.12
64	7106	1508.91
64	7157	1510.31
80	7207	1511.85
64	7245	1513.38
63	7292	1515.17
65	7326	1516.96
64	7378	1518.87
64	7503	1521.3
63	7659	1523.73
64	7818	1525.65
65	7924	1527.18
64	7980	1528.72
63	8034	1529.74
64	8086	1530.63
81	8126	1531.27
63	8206	1531.53
64	8268	1531.91
64	8319	1532.17
64	8384	1532.42
64	8447	1532.55
64	8507	1532.68
64	8540	1532.81
64	8569	1532.93
64	8591	1533.06
64	8606	1533.06
64	8626	1533.32
80	8641	1533.32
64	8650	1533.32
64	8659	1533.45
64	8674	1533.57
63	8673	1533.45
64	8680	1533.57
65	8691	1533.7
64	8696	1533.7
63	8717	1533.83
64	8721	1533.83
65	8731	1533.96
63	8738	1534.08
80	8744	1534.08
65	8749	1534.34
64	8756	1534.21
64	8761	1534.34
63	8767	1534.47
64	8777	1534.34
64	8775	1534.6
64	8777	1534.6
64	8773	1534.6
64	8781	1534.72
64	8790	1534.72
65	8794	1534.72
79	8805	1534.85
64	8810	1534.98
64	8824	1535.11
64	8832	1534.98
64	8833	1535.11
64	8864	1535.11
64	8871	1535.11
63	8888	1535.11
65	8908	1535.23
64	8910	1535.23
64	8922	1535.23
64	8935	1535.36
79	8941	1535.36
65	8946	1535.49
64	8954	1535.49
63	8959	1535.49
65	8955	1535.62
63	8964	1535.62
65	8965	1535.62
63	8973	1535.62
65	8979	1535.75
64	8977	1535.62
63	8975	1535.75
64	8977	1535.75
80	8990	1535.75
65	9000	1535.75
63	8997	1535.75
64	9002	1535.87
64	9012	1535.87
65	9020	1535.87
63	9017	1535.87
64	9028	1535.87
64	9030	1536
64	9033	1536
64	9047	1536.13
64	9049	1536.13
80	9060	1536
63	9060	1536
64	9063	1536.13
65	9065	1536.13
63	9075	1536.13
65	9081	1536.26
64	9085	1536.26
63	9087	1536.26
64	9096	1536.26
64	9099	1536.13
65	9106	1536.26
64	9109	1536.26
79	9110	1536.26
64	9117	1536.26
64	9120	1536.26
65	9122	1536.39
63	9126	1536.26
64	9132	1536.51
64	9142	1536.39
64	9143	1536.39
65	9147	1536.39
63	9149	1536.39
64	9151	1536.39
64	9157	1536.39
80	9166	1536.51
64	9160	1536.51
64	9172	1536.39
64	9178	1536.51
64	9182	1536.64
64	9181	1536.64
64	9180	1536.64
63	9194	1536.51
65	9186	1536.51
64	9200	1536.64
64	9206	1536.64
63	9204	1536.51
80	9214	1536.64
64	9220	1536.64
64	9219	1536.64
64	9229	1536.77
64	9231	1536.64
64	9237	1536.64
65	9237	1536.64
64	9233	1536.64
63	9243	1536.64
64	9237	1536.77
64	9245	1536.64
65	9239	1536.77
79	9251	1536.77
64	9258	1536.64
64	9261	1536.77
64	9263	1536.64
64	9263	1536.64
64	9272	1536.64
64	9280	1536.64
64	9284	1536.64
64	9288	1536.64
64	9289	1536.64
64	9295	1536.77
64	9299	1536.77
80	9300	1536.64
64	9306	1536.77
64	9305	1536.64
64	9313	1536.64
64	9317	1536.64
64	9316	1536.64
64	9324	1536.64
63	9324	1536.64
65	9332	1536.64
63	9334	1536.77
65	9342	1536.77
63	9342	1536.64
65	9341	1536.64
80	9342	1536.77
63	9345	1536.64
64	9348	1536.51
65	9346	1536.77
64	9356	1536.64
63	9356	1536.51
64	9358	1536.64
64	9362	1536.64
64	9368	1536.64
64	9361	1536.51
64	9369	1536.64
64	9369	1536.77
80	9382	1536.64
63	9378	1536.64
65	9383	1536.64
63	9384	1536.64
65	9396	1536.51
64	9400	1536.64
64	9415	1536.64
63	9418	1536.64
65	9426	1536.77
63	9436	1536.64
65	9439	1536.64
64	9445	1536.64
80	9453	1536.64
63	9454	1536.77
64	9462	1536.77
64	9467	1536.64
64	9472	1536.64
64	9483	1536.64
64	9485	1536.77
64	9496	1536.77
64	9501	1536.77
64	9510	1536.64
64	9509	1536.77
64	9519	1536.77
81	9528	1536.64
63	9533	1536.64
64	9544	1536.77
64	9547	1536.64
63	9554	1536.77
65	9563	1536.64
64	9572	1536.64
64	9573	1536.64
64	9584	1536.64
64	9595	1536.64
63	9604	1536.77
65	9608	1536.77
80	9614	1536.64
63	9619	1536.64
65	9631	1536.64
63	9640	1536.64
64	9644	1536.64
64	9654	1536.64
64	9663	1536.77
65	9675	1536.64
63	9685	1536.64
65	9695	1536.77
64	9699	1536.77
63	9707	1536.64
80	9718	1536.64
64	9732	1536.64
65	9743	1536.51
63	9751	1536.77
64	9758	1536.77
64	9775	1536.64
64	9786	1536.77
64	9795	1536.77
64	9809	1536.64
64	9818	1536.77
64	9838	1536.64
64	9853	1536.64
79	9865	1536.64
65	9876	1536.9
63	9889	1537.02
65	9903	1537.15
64	9916	1537.54
64	9926	1537.92
64	9931	1538.43
63	9940	1538.81
65	9948	1539.45
64	9951	1540.09
63	9954	1540.73
65	9958	1541.63
79	9960	1542.39
64	9965	1543.54
64	9956	1544.57
64	9923	1545.84
65	9897	1547.12
64	9843	1548.4
64	9758	1549.81
63	9617	1551.21
65	9554	1552.75
64	9453	1554.66
63	9354	1556.84
65	9232	1559.14
79	9097	1561.69
64	8930	1564.25
64	7417	1566.8
64	7243	1565.91
64	7294	1554.41
64	7352	1519.9
64	7526	1519.13
64	7570	1519.39
63	7599	1520.41
65	7621	1521.43
64	7619	1522.58
64	7619	1523.6
79	7609	1524.37
64	7603	1524.24
65	7604	1522.07
63	7604	1519.51
65	7603	1516.45
63	7602	1513
65	7588	1509.16
64	7570	1505.71
64	7544	1502.13
64	7520	1499.06
64	7490	1496.38
63	7469	1494.21
80	7441	1493.06
64	7407	1492.16
65	7329	1492.03
63	7224	1492.55
64	7112	1493.44
65	7022	1494.59
63	6973	1496
64	6964	1497.66
64	6972	1499.45
64	6986	1501.62
64	7013	1503.54
64	7050	1505.45
80	7090	1506.99
64	7137	1508.39
64	7191	1509.93
63	7235	1511.72
64	7274	1513.38
65	7310	1515.42
63	7356	1517.6
64	7480	1520.41
65	7644	1522.84
63	7808	1524.75
64	7913	1526.67
64	7970	1528.21
81	8020	1529.48
63	8072	1530.25
65	8110	1530.89
63	8164	1531.4
64	8250	1531.66
64	8309	1532.04
64	8370	1532.17
64	8435	1532.42
64	8487	1532.68
64	8518	1532.81
64	8554	1532.93
64	8574	1532.93
80	8600	1533.06
64	8614	1533.06
64	8636	1533.32
64	8641	1533.32
64	8654	1533.45
64	8657	1533.57
64	8668	1533.57
64	8670	1533.57
64	8678	1533.7
64	8692	1533.83
64	8712	1533.7
64	8717	1533.83
80	8728	1533.96
64	8738	1533.96
63	8745	1534.08
65	8751	1534.21
63	8756	1534.21
64	8765	1534.21
65	8771	1534.34
63	8763	1534.34
64	8772	1534.47
64	8778	1534.47
65	8775	1534.47
63	8781	1534.6
64	8786	1534.6
80	8796	1534.6
64	8801	1534.72
64	8813	1534.85
64	8821	1534.98
64	8834	1534.85
64	8842	1534.98
64	8862	1534.85
64	8866	1534.98
64	8889	1534.98
64	8905	1535.23
64	8917	1535.11
64	8928	1535.23
80	8929	1535.23
63	8943	1535.23
64	8945	1535.36
65	8954	1535.23
64	8955	1535.49
64	8962	1535.36
64	8968	1535.36
64	8979	1535.49
63	8984	1535.49
65	8992	1535.62
63	8991	1535.49
64	9002	1535.62
80	9006	1535.62
64	9011	1535.62
64	9019	1535.62
64	9026	1535.87
64	9031	1535.62
64	9038	1535.75
65	9041	1535.75
63	9046	1535.87
64	9055	1535.75
64	9057	1535.75
64	9062	1535.87
64	9068	1536
80	9072	1535.87
64	9080	1535.87
64	9081	1536
64	9084	1535.87
63	9096	1535.87
64	9098	1535.87
65	9104	1536
63	9103	1536.13
65	9113	1536
63	9117	1536
65	9113	1536.13
64	9120	1536.13
80	9127	1536.13
64	9138	1536.13
64	9139	1536.13
63	9138	1536.26
65	9146	1536.13
63	9145	1536.13
64	9153	1536.26
64	9149	1536.26
64	9157	1536.26
65	9161	1536.26
63	9162	1536.26
64	9171	1536.13
80	9175	1536.26
64	9183	1536.26
64	9184	1536.39
64	9189	1536.39
64	9188	1536.39
64	9195	1536.39
64	9196	1536.39
64	9205	1536.39
64	9209	1536.39
63	9211	1536.51
64	9216	1536.39
65	9220	1536.51
79	9223	1536.51
65	9230	1536.39
64	9227	1536.51
64	9234	1536.51
63	9236	1536.64
65	9239	1536.64
63	9239	1536.64
64	9245	1536.51
64	9247	1536.51
64	9254	1536.51
64	9259	1536.51
65	9250	1536.64
79	9257	1536.64
64	9261	1536.64
64	9266	1536.51
64	9268	1536.51
64	9265	1536.64
64	9269	1536.64
64	9272	1536.64
64	9276	1536.64
65	9282	1536.64
63	9281	1536.64
65	9285	1536.64
63	9283	1536.64
79	9288	1536.64
65	9290	1536.51
64	9297	1536.64
64	9304	1536.64
63	9304	1536.64
64	9304	1536.64
65	9306	1536.51
63	9317	1536.64
64	9316	1536.64
64	9315	1536.64
65	9319	1536.64
64	9326	1536.64
79	9329	1536.64
64	9323	1536.64
64	9333	1536.64
64	9336	1536.64
64	9340	1536.64
64	9340	1536.51
64	9343	1536.64
64	9346	1536.64
64	9349	1536.64
64	9348	1536.64
64	9356	1536.64
64	9354	1536.64
80	9354	1536.51
64	9358	1536.64
63	9362	1536.64
65	9366	1536.64
64	9374	1536.77
63	9374	1536.64
65	9382	1536.64
64	9388	1536.51
64	9388	1536.64
64	9397	1536.64
64	9411	1536.64
64	9419	1536.77
79	9420	1536.64
65	9430	1536.51
63	9434	1536.64
64	9438	1536.51
64	9447	1536.64
64	9449	1536.64
65	9456	1536.64
63	9465	1536.64
65	9467	1536.64
63	9477	1536.64
64	9486	1536.64
64	9490	1536.77
80	9494	1536.51
64	9499	1536.64
65	9507	1536.64
63	9517	1536.64
64	9517	1536.51
64	9531	1536.51
64	9542	1536.51
64	9548	1536.51
64	9552	1536.64
64	9561	1536.64
64	9569	1536.64
64	9579	1536.64
80	9583	1536.64
64	9589	1536.51
64	9595	1536.51
63	9604	1536.64
64	9612	1536.64
65	9621	1536.64
63	9628	1536.51
65	9638	1536.64
64	9648	1536.64
63	9657	1536.51
64	9666	1536.51
65	9676	1536.64
79	9686	1536.64
64	9694	1536.64
64	9699	1536.64
65	9714	1536.51
63	9726	1536.64
64	9734	1536.64
64	9748	1536.64
65	9761	1536.64
63	9767	1536.64
64	9777	1536.64
64	9793	1536.64
64	9802	1536.64
64	9819	1536.64
80	9830	1536.64
64	9845	1536.64
64	9858	1536.64
64	9876	1536.77
63	9886	1537.02
64	9898	1537.28
65	9905	1537.66
64	9911	1537.92
64	9918	1538.56
64	9930	1539.07
64	9933	1539.71
64	9943	1540.35
80	9949	1541.11
64	9946	1542.01
63	9953	1542.9
64	9949	1544.05
65	9924	1545.08
63	9900	1546.35
64	9859	1547.63
64	9797	1549.04
64	9684	1550.44
64	9556	1551.98
64	9477	1553.64
64	9389	1555.81
80	9271	1557.99
64	9149	1560.41
65	8990	1562.97
63	8046	1565.65
64	7190	1566.42
64	7259	1567.57
64	7313	1519.51
64	7453	1517.85
64	7555	1517.72
64	7582	1518.24
64	7614	1519.13
63	7618	1520.28
80	7624	1521.3
65	7617	1522.45
63	7603	1523.09
64	7601	1521.69
64	7601	1519.13
65	7604	1516.32
64	7598	1513.12
64	7591	1509.42
64	7576	1505.71
64	7549	1502.13
63	7524	1499.06
64	7492	1496.12
80	7468	1493.7
64	7442	1492.29
64	7410	1491.27
64	7349	1490.88
64	7238	1491.27
64	7133	1492.16
64	7032	1493.18
64	6971	1494.72
63	6953	1496.38
65	6957	1498.04
64	6972	1500.09
63	6995	1502
81	7027	1503.92
64	7063	1505.45
64	7114	1506.99
64	7160	1508.52
64	7208	1510.31
64	7251	1512.23
63	7286	1514.4
64	7331	1516.7
64	7435	1519.26
64	7611	1521.81
65	7782	1523.86
63	7887	1525.78
80	7950	1527.44
65	8000	1528.84
64	8043	1529.87
63	8086	1530.51
64	8137	1531.02
64	8211	1531.53
64	8270	1531.91
65	8334	1532.17
64	8398	1532.42
63	8459	1532.68
65	8508	1532.81
63	8539	1532.93
80	8567	1533.32
64	8589	1533.19
64	8603	1533.45
64	8623	1533.45
64	8639	1533.45
64	8650	1533.45
64	8660	1533.7
64	8667	1533.83
64	8670	1533.83
64	8679	1533.83
64	8692	1533.96
64	8702	1533.96
79	8717	1534.08
64	8723	1534.08
65	8735	1534.21
64	8739	1534.34
63	8746	1534.34
64	8750	1534.34
65	8757	1534.47
65	8763	1534.47
63	8772	1534.6
63	8769	1534.6
64	8772	1534.72
65	8775	1534.72
79	8779	1534.85
65	8784	1534.85
63	8792	1534.85
64	8813	1534.85
64	8818	1535.11
64	8831	1535.11
64	8835	1535.11
64	8852	1535.23
64	8878	1535.11
64	8894	1535.11
64	8910	1535.36
64	8926	1535.36
80	8931	1535.36
64	8945	1535.49
64	8954	1535.36
64	8960	1535.23
63	8966	1535.49
65	8975	1535.36
64	8977	1535.49
63	8983	1535.36
65	8991	1535.49
64	8995	1535.62
64	8990	1535.49
63	9008	1535.49
80	9002	1535.62
65	9003	1535.62
64	9017	1535.75
64	9016	1535.75
63	9018	1535.75
65	9020	1535.75
63	9033	1535.75
64	9033	1535.75
65	9038	1535.75
64	9048	1535.75
63	9050	1535.87
64	9056	1535.75
80	9058	1535.87
64	9067	1535.87
65	9068	1535.87
64	9077	1536
64	9078	1535.87
63	9077	1536
64	9084	1536
64	9089	1536.13
64	9095	1536
64	9100	1536
64	9105	1536
64	9110	1536
79	9119	1536.13
65	9118	1536
64	9113	1536.13
64	9125	1536.26
63	9131	1536.13
64	9128	1536.13
64	9127	1536.13
64	9135	1536.13
65	9144	1536.26
63	9141	1536.13
64	9146	1536.26
65	9154	1536.26
80	9155	1536.13
63	9161	1536.26
64	9163	1536.39
64	9173	1536.26
64	9171	1536.26
64	9176	1536.39
64	9180	1536.26
64	9184	1536.39
64	9193	1536.51
64	9188	1536.39
64	9191	1536.39
64	9201	1536.39
64	9196	1536.39
80	9207	1536.39
64	9201	1536.39
64	9215	1536.39
64	9219	1536.51
64	9218	1536.39
64	9224	1536.39
64	9228	1536.39
64	9227	1536.51
63	9231	1536.51
64	9239	1536.64
65	9230	1536.51
64	9242	1536.51
79	9244	1536.51
64	9251	1536.64
65	9245	1536.64
64	9250	1536.64
64	9253	1536.64
63	9252	1536.64
64	9261	1536.51
64	9258	1536.64
64	9263	1536.51
64	9264	1536.77
64	9270	1536.64
64	9269	1536.64
80	9274	1536.64
64	9274	1536.51
64	9280	1536.64
64	9284	1536.64
63	9286	1536.64
65	9280	1536.51
63	9291	1536.64
64	9287	1536.64
65	9289	1536.64
64	9297	1536.64
63	9294	1536.64
64	9296	1536.64
80	9301	1536.64
65	9303	1536.51
64	9303	1536.64
64	9303	1536.64
64	9309	1536.64
64	9315	1536.51
63	9312	1536.64
64	9308	1536.64
65	9319	1536.51
64	9320	1536.64
63	9325	1536.64
65	9324	1536.64
79	9330	1536.64
64	9321	1536.51
64	9328	1536.64
64	9332	1536.64
64	9332	1536.64
64	9331	1536.77
64	9336	1536.64
64	9339	1536.64
64	9340	1536.77
64	9344	1536.64
63	9353	1536.64
64	9353	1536.64
81	9357	1536.64
64	9355	1536.64
64	9359	1536.64
64	9367	1536.64
64	9365	1536.64
64	9363	1536.64
64	9366	1536.64
64	9368	1536.64
64	9373	1536.64
64	9376	1536.64
63	9374	1536.64
65	9379	1536.51
79	9384	1536.64
64	9382	1536.64
65	9386	1536.77
63	9383	1536.51
65	9387	1536.64
63	9382	1536.51
64	9390	1536.64
64	9390	1536.51
64	9389	1536.64
64	9388	1536.64
64	9389	1536.64
64	9390	1536.64
80	9400	1536.77
64	9400	1536.64
64	9407	1536.51
63	9399	1536.77
65	9407	1536.64
64	9400	1536.64
64	9408	1536.64
63	9405	1536.64
65	9408	1536.64
63	9413	1536.64
64	9406	1536.64
65	9415	1536.64
79	9413	1536.64
65	9416	1536.64
64	9410	1536.64
64	9415	1536.64
64	9417	1536.64
64	9412	1536.64
64	9418	1536.51
64	9424	1536.64
64	9428	1536.64
63	9425	1536.51
65	9424	1536.64
63	9423	1536.51
80	9426	1536.77
64	9425	1536.64
64	9432	1536.64
64	9429	1536.64
64	9428	1536.64
64	9435	1536.51
64	9429	1536.64
64	9441	1536.64
64	9442	1536.64
64	9439	1536.64
65	9439	1536.51
62	9440	1536.64
83	9441	1536.64
62	9441	1536.64
64	9443	1536.64
66	9443	1536.64
62	9450	1536.64
63	9450	1536.77
64	9447	1536.51
