Loop Time (ms)	IR (16 bit)	Force (N)
257	8755	1567.04
54	8749	1567.04
64	8748	1567.04
64	8745	1567.04
63	8748	1567.04
65	8749	1566.92
80	8741	1567.04
64	8743	1566.92
64	8745	1567.04
63	8751	1567.04
64	8750	1567.04
64	8746	1566.92
64	8753	1567.04
64	8749	1567.04
64	8751	1566.92
64	8748	1567.04
64	8741	1567.04
64	8747	1567.04
80	8744	1567.04
64	8748	1567.04
64	8748	1567.04
63	8741	1567.04
65	8747	1566.92
64	8750	1566.92
63	8749	1566.92
64	8751	1567.04
65	8740	1567.04
63	8741	1567.04
64	8749	1566.92
65	8744	1566.92
79	8745	1567.04
65	8742	1567.04
63	8752	1567.04
64	8741	1567.04
64	8740	1566.92
64	8744	1567.04
65	8744	1566.92
63	8743	1567.04
64	8739	1566.92
64	8736	1567.04
64	8746	1566.92
64	8743	1567.04
80	8741	1567.04
64	8742	1566.92
63	8740	1566.92
64	8739	1567.04
65	8744	1567.04
64	8737	1567.04
64	8745	1566.92
63	8735	1567.04
65	8747	1566.92
63	8743	1566.92
65	8740	1566.92
64	8737	1567.04
80	8741	1567.04
63	8738	1566.92
64	8737	1567.04
64	8740	1566.92
64	8754	1566.92
64	8758	1567.04
64	8764	1566.92
64	8773	1567.04
64	8787	1567.04
64	8788	1566.92
64	8806	1567.04
64	8811	1567.04
80	8830	1567.17
63	8833	1566.92
65	8836	1567.04
64	8868	1567.04
64	8880	1567.17
64	8886	1566.92
64	8894	1567.04
64	8908	1566.92
63	8914	1567.04
65	8931	1567.04
64	8946	1567.04
64	8957	1566.92
79	8963	1566.92
64	8981	1567.04
64	9000	1566.92
64	9012	1567.04
65	9026	1567.04
63	9045	1567.04
65	9069	1567.04
63	9085	1566.92
64	9105	1567.04
64	9126	1567.04
64	9148	1567.04
64	9171	1566.92
80	9193	1567.04
63	9207	1567.04
65	9233	1567.04
64	9266	1567.04
65	9281	1566.92
63	9307	1567.04
63	9337	1566.92
64	9363	1566.92
65	9394	1566.92
64	9419	1567.04
64	9449	1567.04
63	9496	1567.04
80	9525	1566.92
64	9559	1566.92
64	9601	1566.92
64	9655	1566.92
64	9695	1567.04
64	9736	1566.92
64	9794	1567.04
64	9853	1566.92
64	9917	1567.04
64	9982	1567.04
64	10053	1567.04
63	10128	1567.04
81	10191	1567.04
64	10260	1567.17
64	10329	1567.17
63	10407	1567.3
65	10479	1567.17
63	10579	1567.43
64	10702	1567.43
64	10825	1567.55
64	10926	1567.55
64	11024	1567.68
65	11111	1567.68
63	11190	1567.93
81	11237	1568.06
64	11253	1568.06
63	11264	1568.19
64	11267	1568.57
64	11270	1568.57
64	11242	1568.57
64	11213	1568.44
64	11219	1568.32
64	11235	1568.06
64	11242	1567.93
64	11201	1567.81
64	11149	1567.81
79	11088	1567.68
65	10986	1567.55
65	10871	1567.43
62	10748	1567.43
65	10661	1567.3
63	10556	1567.17
64	10465	1567.3
64	10389	1567.04
65	10325	1567.17
64	10252	1567.17
63	10183	1567.17
65	10104	1567.04
79	10034	1567.04
64	9973	1567.04
64	9909	1566.92
64	9848	1567.04
64	9794	1567.04
64	9731	1566.92
64	9691	1567.04
63	9640	1567.04
65	9593	1566.92
64	9557	1567.04
63	9518	1567.04
65	9481	1567.04
80	9438	1566.92
64	9411	1567.04
64	9382	1567.04
64	9350	1567.04
64	9318	1567.04
64	9296	1567.04
63	9271	1567.04
64	9244	1566.92
64	9213	1567.04
65	9200	1566.92
64	9177	1567.04
63	9147	1567.04
81	9127	1567.04
63	9104	1567.04
64	9081	1566.92
64	9069	1567.04
64	9043	1567.04
64	9026	1567.04
65	9010	1567.04
63	8989	1567.04
64	8975	1567.04
64	8962	1566.92
64	8954	1566.92
64	8939	1567.04
80	8918	1566.92
63	8911	1566.92
65	8895	1567.04
64	8875	1566.92
64	8867	1567.04
64	8848	1567.04
63	8836	1567.04
65	8826	1566.92
63	8809	1567.04
65	8805	1567.04
63	8791	1567.04
64	8778	1566.92
80	8770	1567.04
65	8760	1567.04
63	8755	1566.92
64	8746	1566.92
64	8733	1566.92
64	8732	1567.04
64	8717	1566.92
64	8721	1567.04
64	8708	1566.92
63	8712	1566.92
65	8711	1567.04
64	8712	1567.04
79	8716	1566.92
65	8712	1566.92
63	8708	1566.92
64	8710	1567.04
64	8705	1566.92
65	8715	1567.04
64	8703	1567.04
63	8706	1567.04
64	8713	1567.04
65	8704	1567.04
63	8710	1567.04
64	8706	1566.92
80	8701	1566.92
64	8699	1567.04
64	8696	1567.04
64	8701	1566.92
63	8700	1567.04
65	8703	1566.92
64	8699	1566.92
63	8692	1567.04
65	8705	1567.04
63	8699	1566.92
65	8692	1567.04
79	8692	1566.92
65	8696	1567.04
63	8692	1567.04
64	8694	1567.04
64	8699	1566.92
64	8698	1567.04
64	8694	1567.04
64	8700	1567.04
64	8685	1566.92
64	8686	1567.17
64	8693	1567.04
64	8694	1567.04
80	8698	1566.92
64	8687	1567.04
65	8695	1566.92
63	8693	1567.04
63	8696	1567.04
65	8689	1566.92
64	8689	1567.04
64	8686	1567.04
64	8691	1567.04
93	8691	1566.92
35	8688	1567.04
63	8690	1566.92
65	8682	1567.04
80	8686	1566.92
63	8692	1566.92
65	8689	1566.92
64	8681	1567.04
63	8683	1567.04
64	8680	1567.04
65	8681	1566.92
64	8685	1567.04
63	8683	1567.04
64	8688	1566.92
64	8685	1566.92
80	8688	1566.92
64	8685	1567.04
64	8681	1567.04
64	8687	1566.92
64	8680	1567.04
64	8681	1566.92
67	8686	1567.04
61	8689	1567.04
64	8690	1567.17
64	8686	1567.04
63	8683	1566.92
70	8682	1567.04
74	8678	1567.04
65	8676	1566.92
64	8686	1567.04
63	8678	1567.04
65	8676	1567.04
63	8682	1567.04
65	8676	1567.04
64	8679	1567.04
63	8675	1566.92
64	8683	1566.92
64	8680	1566.92
64	8677	1566.92
81	8675	1566.92
63	8679	1566.92
64	8677	1567.04
75	8676	1567.17
53	8676	1567.04
64	8675	1566.92
63	8675	1567.04
64	8676	1567.04
65	8682	1567.04
64	8683	1566.92
64	8696	1567.04
64	8708	1567.04
79	8718	1566.92
64	8721	1566.92
64	8722	1567.04
64	8737	1566.92
64	8750	1567.04
64	8767	1567.17
64	8766	1567.04
66	8774	1567.04
62	8790	1567.04
64	8795	1567.04
64	8812	1567.04
64	8820	1566.92
79	8831	1567.04
65	8850	1567.04
64	8865	1567.04
64	8879	1567.04
65	8891	1566.92
63	8904	1566.92
64	8918	1567.04
64	8937	1567.04
64	8945	1566.92
63	8964	1566.92
64	8980	1567.04
64	8997	1567.04
89	9013	1567.04
56	9029	1567.04
63	9050	1567.04
65	9075	1566.92
63	9095	1567.04
64	9116	1566.92
64	9139	1567.04
64	9158	1567.04
64	9178	1567.04
64	9205	1567.04
64	9225	1567.04
64	9267	1567.04
80	9281	1567.04
64	9309	1567.04
63	9338	1567.04
64	9373	1566.92
64	9399	1566.92
65	9446	1566.92
65	9482	1566.92
62	9519	1567.04
65	9558	1567.04
64	9602	1567.04
63	9645	1566.92
65	9701	1567.04
80	9751	1566.92
63	9812	1567.04
64	9867	1567.04
64	9940	1567.04
64	10002	1567.04
64	10067	1567.17
65	10140	1567.04
63	10210	1567.17
64	10288	1567.17
64	10357	1567.3
65	10433	1567.3
63	10541	1567.3
79	10661	1567.43
65	10764	1567.55
64	10851	1567.55
63	10945	1567.68
65	11014	1567.81
63	11082	1567.93
64	11118	1568.06
65	11122	1568.32
63	11126	1568.32
64	11110	1568.44
65	11097	1568.7
64	11074	1568.44
80	11070	1568.32
63	11093	1568.19
64	11117	1568.06
64	11107	1567.81
64	11070	1567.81
64	11018	1567.68
64	10937	1567.55
64	10822	1567.43
65	10699	1567.43
62	10594	1567.3
65	10497	1567.3
63	10402	1567.3
80	10321	1567.17
65	10247	1567.04
63	10185	1567.04
64	10109	1567.04
65	10033	1567.04
64	9970	1567.04
63	9898	1567.04
64	9827	1567.04
64	9775	1566.92
64	9725	1566.92
64	9668	1567.04
65	9612	1567.04
79	9567	1566.92
64	9518	1567.04
64	9475	1567.04
64	9438	1567.04
64	9406	1567.04
64	9374	1566.92
64	9340	1567.17
64	9310	1566.92
64	9271	1566.92
64	9248	1567.04
65	9218	1566.92
63	9197	1567.04
81	9167	1567.04
63	9146	1567.04
63	9117	1567.04
64	9097	1567.04
64	9076	1567.04
64	9052	1567.04
64	9030	1567.04
64	9003	1567.04
65	8994	1567.04
63	8969	1567.04
64	8953	1567.04
64	8937	1567.04
80	8923	1567.04
64	8911	1567.04
64	8897	1567.04
64	8883	1566.92
64	8868	1566.92
64	8852	1567.04
65	8832	1566.92
63	8813	1566.92
64	8800	1566.92
64	8797	1566.92
63	8781	1566.92
64	8770	1567.04
81	8756	1567.04
64	8743	1566.92
63	8733	1566.79
65	8721	1567.04
63	8721	1567.04
64	8701	1566.92
64	8685	1567.04
64	8693	1567.17
65	8678	1567.04
63	8673	1567.04
64	8654	1566.92
64	8647	1566.92
80	8634	1567.04
64	8632	1566.92
64	8627	1566.92
64	8626	1566.79
64	8628	1567.04
64	8629	1567.04
85	8628	1566.92
43	8628	1566.92
64	8634	1567.04
64	8626	1567.04
64	8626	1567.04
63	8623	1567.04
81	8628	1567.04
63	8629	1567.04
64	8632	1567.04
64	8630	1567.04
65	8616	1567.04
64	8627	1566.92
63	8622	1566.92
64	8631	1566.92
65	8625	1567.04
63	8622	1566.92
64	8622	1566.92
64	8620	1567.04
80	8617	1566.92
63	8616	1566.92
65	8618	1567.04
64	8613	1566.92
65	8622	1566.92
63	8617	1566.92
64	8616	1567.04
63	8622	1566.92
65	8618	1566.92
63	8621	1567.04
64	8611	1567.04
65	8624	1567.04
79	8617	1566.92
64	8621	1566.92
64	8622	1566.92
65	8615	1567.04
63	8615	1566.92
64	8621	1567.04
65	8618	1567.04
63	8618	1566.92
64	8614	1566.92
64	8612	1566.92
64	8611	1566.92
65	8621	1567.04
79	8620	1567.04
64	8613	1566.92
63	8621	1566.92
65	8612	1567.04
64	8614	1567.04
65	8618	1567.04
63	8608	1567.04
64	8617	1567.04
63	8618	1566.92
65	8617	1567.04
63	8615	1566.92
65	8609	1567.04
80	8607	1566.92
64	8606	1567.04
63	8612	1566.92
64	8607	1566.92
64	8605	1566.92
64	8610	1566.92
64	8609	1566.92
64	8614	1567.04
64	8607	1566.92
64	8609	1566.92
64	8615	1566.92
65	8614	1566.92
79	8609	1567.04
64	8616	1566.92
65	8610	1566.92
62	8609	1567.04
65	8607	1567.04
63	8609	1567.04
64	8606	1566.92
65	8606	1567.04
63	8609	1567.04
64	8610	1566.92
64	8609	1566.92
64	8612	1566.92
80	8607	1566.92
65	8606	1567.04
63	8615	1567.04
64	8607	1567.04
65	8609	1566.92
63	8611	1567.04
64	8607	1566.92
64	8615	1566.92
64	8606	1566.92
64	8604	1567.04
64	8609	1566.92
64	8600	1567.04
80	8611	1567.17
64	8618	1566.92
64	8619	1567.04
64	8629	1566.92
64	8636	1566.92
64	8652	1567.04
63	8654	1567.04
64	8666	1566.92
64	8671	1567.04
64	8689	1566.92
65	8698	1567.04
63	8702	1566.92
81	8718	1567.04
63	8734	1567.04
64	8742	1566.92
64	8752	1566.92
64	8766	1566.92
64	8770	1566.92
64	8791	1567.04
64	8794	1567.04
64	8815	1566.92
64	8835	1567.04
64	8847	1567.04
64	8854	1567.04
80	8876	1567.04
64	8889	1566.92
64	8908	1566.92
63	8919	1567.04
64	8938	1566.92
65	8955	1567.04
64	8972	1567.04
64	8992	1566.92
63	9010	1567.04
64	9041	1566.92
65	9061	1566.92
64	9081	1566.92
79	9101	1567.04
64	9130	1567.04
64	9152	1567.04
65	9176	1567.04
63	9201	1567.04
64	9233	1567.04
65	9260	1567.04
63	9297	1566.92
64	9308	1567.04
64	9359	1567.04
64	9397	1566.92
64	9424	1566.92
79	9463	1566.92
65	9500	1567.04
64	9554	1567.04
64	9604	1567.04
64	9655	1567.04
64	9710	1567.04
63	9766	1566.92
64	9830	1566.92
64	9899	1567.04
65	9967	1567.04
63	10030	1567.17
64	10094	1567.04
80	10167	1567.04
64	10245	1567.17
64	10321	1567.3
65	10412	1567.43
63	10513	1567.43
64	10635	1567.55
64	10735	1567.43
65	10817	1567.55
63	10901	1567.68
64	10968	1567.81
64	11024	1567.93
64	11046	1568.19
80	11036	1568.19
64	11032	1568.44
63	11025	1568.44
65	11008	1568.57
64	10999	1568.57
64	11004	1568.32
64	11027	1568.06
63	11045	1568.06
64	11028	1567.68
64	10978	1567.81
65	10931	1567.55
65	10832	1567.43
79	10713	1567.3
64	10595	1567.43
64	10496	1567.3
64	10400	1567.3
64	10310	1567.17
63	10222	1567.17
65	10153	1566.92
63	10088	1567.04
64	10013	1567.04
64	9938	1567.04
64	9870	1567.04
65	9802	1567.04
79	9738	1567.04
64	9690	1567.04
64	9636	1566.92
64	9578	1566.92
64	9531	1566.92
64	9482	1567.04
63	9437	1566.92
65	9404	1566.92
63	9356	1567.04
65	9323	1567.04
63	9293	1567.04
64	9256	1566.92
81	9226	1567.04
63	9199	1567.04
65	9170	1567.04
64	9146	1566.92
64	9118	1567.04
63	9097	1566.92
64	9074	1567.04
64	9047	1566.92
64	9025	1567.04
64	9001	1566.92
64	8979	1567.04
64	8963	1566.92
80	8940	1567.04
63	8929	1566.92
65	8900	1567.04
63	8893	1567.04
65	8868	1567.04
63	8857	1567.04
65	8837	1567.04
63	8818	1567.04
65	8804	1566.92
63	8790	1566.92
65	8775	1566.92
66	8765	1567.04
77	8753	1567.04
64	8739	1567.04
64	8730	1567.04
64	8711	1566.92
64	8702	1567.04
65	8686	1567.04
63	8673	1567.04
64	8663	1566.92
64	8661	1567.04
64	8634	1567.04
65	8634	1567.04
63	8623	1567.04
80	8615	1567.04
64	8604	1567.04
64	8598	1567.04
63	8577	1567.04
65	8574	1567.04
63	8563	1567.04
64	8555	1567.04
65	8569	1566.92
63	8568	1567.04
65	8562	1567.04
64	8566	1567.04
64	8564	1566.79
80	8558	1566.92
64	8559	1567.04
64	8567	1566.92
63	8557	1567.04
64	8555	1566.92
64	8557	1566.92
64	8561	1567.04
64	8566	1566.92
64	8561	1567.04
64	8559	1566.92
64	8558	1567.04
64	8566	1566.92
80	8549	1566.92
63	8558	1567.04
64	8563	1566.92
64	8561	1567.04
64	8563	1566.92
64	8559	1567.04
64	8563	1567.04
64	8559	1566.92
65	8556	1567.04
64	8551	1566.92
63	8555	1567.04
65	8553	1567.17
79	8558	1567.04
64	8548	1566.92
64	8558	1567.04
64	8551	1566.92
64	8553	1566.92
65	8557	1567.04
63	8557	1566.92
64	8549	1566.92
64	8554	1567.04
64	8554	1566.92
63	8555	1567.04
65	8552	1566.92
80	8553	1566.92
64	8548	1566.92
64	8552	1567.04
64	8556	1566.92
63	8557	1567.04
64	8549	1567.04
65	8543	1567.04
63	8548	1567.04
65	8550	1566.92
63	8546	1567.04
64	8551	1566.79
64	8543	1567.04
80	8545	1567.04
64	8553	1567.04
65	8550	1567.04
63	8549	1567.04
64	8549	1566.92
64	8543	1566.92
64	8548	1567.04
64	8553	1567.04
64	8542	1566.92
64	8547	1566.92
64	8548	1567.04
64	8557	1567.04
80	8550	1566.92
63	8547	1566.92
65	8554	1567.04
63	8551	1567.04
64	8553	1566.92
64	8551	1567.04
66	8550	1567.04
63	8549	1567.04
64	8553	1567.04
63	8551	1567.04
64	8550	1566.92
64	8553	1567.04
81	8553	1567.04
63	8548	1566.92
64	8557	1566.92
64	8556	1566.92
65	8555	1566.92
63	8553	1566.92
64	8550	1566.92
64	8550	1567.04
64	8553	1566.92
64	8552	1567.17
64	8544	1567.04
64	8557	1567.04
80	8553	1566.92
64	8544	1567.04
64	8550	1567.04
64	8542	1567.04
64	8549	1566.92
63	8555	1567.04
64	8554	1566.92
64	8560	1566.92
65	8577	1567.04
64	8586	1567.04
64	8599	1567.04
63	8596	1566.92
80	8608	1567.17
64	8624	1567.04
64	8633	1566.92
65	8640	1567.04
63	8655	1567.04
64	8665	1567.04
64	8675	1567.04
63	8686	1566.92
65	8690	1566.92
64	8714	1566.92
64	8730	1567.04
64	8732	1566.92
80	8757	1566.92
63	8761	1567.04
64	8779	1567.04
65	8796	1566.92
63	8802	1567.04
65	8820	1567.04
63	8847	1566.92
65	8850	1566.92
64	8871	1566.92
64	8894	1566.92
64	8908	1567.04
64	8926	1566.92
79	8945	1566.92
64	8965	1567.04
64	8987	1567.04
64	9004	1567.04
64	9032	1567.04
64	9052	1567.04
64	9077	1567.04
64	9100	1566.92
64	9129	1566.92
65	9162	1566.92
63	9193	1566.92
64	9216	1566.92
80	9239	1566.92
64	9284	1567.04
64	9321	1567.04
64	9347	1567.04
63	9386	1566.92
64	9422	1566.92
64	9458	1567.17
64	9523	1566.92
65	9576	1566.92
64	9622	1566.92
64	9683	1567.04
63	9733	1567.04
80	9804	1567.17
64	9866	1567.04
64	9938	1567.04
64	10007	1567.17
64	10071	1567.17
64	10147	1567.17
64	10220	1567.3
63	10303	1567.17
64	10399	1567.3
65	10516	1567.43
64	10621	1567.55
80	10708	1567.68
63	10790	1567.81
65	10858	1567.93
63	10914	1567.81
65	10947	1568.06
64	10952	1568.19
63	10934	1568.44
65	10926	1568.32
63	10918	1568.7
64	10906	1568.7
64	10905	1568.32
64	10922	1568.06
80	10954	1568.06
64	10943	1567.93
64	10912	1567.81
64	10860	1567.81
64	10791	1567.55
64	10672	1567.55
64	10553	1567.43
65	10452	1567.3
63	10353	1567.3
64	10265	1567.3
64	10170	1567.17
63	10087	1567.3
81	10037	1567.04
64	9958	1567.04
64	9883	1567.04
64	9807	1567.04
63	9738	1567.04
64	9683	1567.04
65	9622	1567.04
63	9574	1567.04
64	9515	1567.04
64	9463	1567.04
64	9405	1566.92
64	9374	1567.04
81	9336	1566.92
63	9297	1567.04
64	9260	1567.04
64	9233	1566.92
64	9193	1567.04
64	9165	1567.04
64	9141	1566.92
64	9097	1567.04
64	9086	1567.04
64	9051	1566.92
64	9026	1566.92
64	8996	1566.92
79	8977	1566.92
64	8963	1566.92
65	8930	1567.04
64	8912	1566.92
64	8897	1567.04
63	8879	1567.04
64	8863	1567.04
64	8832	1567.04
65	8815	1567.04
63	8800	1567.04
64	8785	1566.92
64	8776	1566.92
81	8748	1567.04
63	8740	1566.79
64	8722	1567.04
64	8700	1567.04
64	8695	1566.92
65	8673	1567.04
63	8667	1566.92
64	8658	1566.92
64	8639	1567.04
63	8637	1567.04
65	8622	1566.92
63	8607	1567.04
80	8593	1567.04
64	8585	1566.92
65	8575	1567.04
64	8563	1567.04
63	8552	1567.04
64	8534	1566.92
64	8528	1567.04
64	8523	1566.92
64	8509	1566.92
64	8506	1566.92
64	8489	1567.04
64	8487	1566.92
80	8487	1566.92
64	8496	1567.04
64	8491	1567.04
63	8496	1567.04
65	8494	1566.92
64	8485	1567.04
63	8496	1567.04
64	8489	1567.04
65	8489	1567.04
64	8487	1567.04
63	8488	1567.04
65	8485	1566.92
79	8487	1566.92
65	8491	1567.04
63	8485	1567.17
64	8487	1567.04
64	8497	1566.92
64	8489	1566.92
64	8491	1566.92
64	8491	1567.04
64	8492	1566.92
64	8487	1567.04
64	8492	1567.04
64	8488	1566.92
80	8488	1566.92
64	8496	1567.04
63	8493	1567.04
66	8488	1567.04
63	8489	1567.04
64	8490	1566.92
63	8488	1566.92
64	8489	1567.04
64	8491	1567.04
65	8489	1567.04
63	8486	1566.92
65	8497	1567.04
80	8490	1567.04
64	8498	1566.92
64	8494	1567.04
63	8488	1566.92
64	8492	1567.04
64	8495	1567.04
65	8496	1566.92
63	8493	1567.04
64	8489	1567.04
64	8491	1567.04
64	8499	1566.92
64	8496	1566.92
80	8493	1567.04
64	8492	1567.04
64	8489	1566.92
63	8497	1566.92
65	8498	1567.04
64	8489	1566.92
64	8495	1567.04
64	8500	1566.92
64	8496	1567.04
63	8499	1567.04
64	8502	1566.92
65	8495	1566.92
79	8495	1566.92
65	8486	1566.92
64	8492	1567.04
63	8491	1567.04
64	8496	1566.92
64	8493	1566.92
64	8495	1567.04
64	8493	1567.04
64	8499	1567.04
64	8491	1566.92
64	8490	1566.92
64	8493	1567.04
80	8499	1567.17
64	8493	1567.04
63	8497	1567.04
65	8497	1567.04
63	8495	1567.04
65	8501	1567.04
64	8499	1567.04
64	8494	1566.92
64	8496	1567.04
64	8502	1567.04
64	8497	1566.92
64	8494	1567.04
80	8495	1567.04
63	8494	1567.04
64	8492	1567.04
64	8495	1567.04
64	8491	1566.92
65	8497	1567.04
63	8496	1567.04
64	8497	1566.79
65	8496	1566.92
63	8493	1567.04
64	8499	1567.04
64	8500	1567.04
80	8503	1567.04
64	8508	1566.92
64	8528	1566.92
64	8534	1566.92
64	8546	1567.04
63	8550	1567.04
65	8564	1567.04
64	8576	1567.04
63	8584	1566.92
64	8604	1567.04
64	8612	1567.04
64	8618	1567.04
80	8634	1567.04
64	8642	1567.04
64	8659	1566.92
64	8661	1567.04
65	8684	1567.04
63	8696	1566.92
64	8700	1566.92
64	8716	1567.04
64	8739	1566.92
64	8751	1567.04
64	8768	1566.92
65	8781	1567.04
79	8799	1567.04
64	8811	1566.92
64	8835	1567.04
64	8852	1566.92
64	8867	1566.92
64	8890	1567.04
64	8909	1567.04
63	8921	1567.04
64	8946	1566.92
64	8968	1566.92
64	8990	1567.04
65	9015	1567.04
80	9033	1567.04
64	9066	1567.04
64	9081	1566.92
63	9126	1566.92
64	9155	1566.92
64	9185	1567.04
64	9212	1566.92
64	9236	1567.04
64	9282	1566.92
64	9310	1567.04
64	9351	1566.92
64	9394	1567.04
80	9431	1567.04
64	9481	1567.04
64	9537	1567.04
63	9597	1566.92
65	9639	1567.04
64	9711	1566.92
63	9779	1567.04
64	9841	1566.92
65	9909	1567.04
63	9974	1567.04
64	10047	1567.17
65	10114	1567.3
79	10199	1567.17
64	10296	1567.3
64	10398	1567.3
64	10512	1567.43
64	10604	1567.55
64	10685	1567.68
64	10757	1567.68
64	10823	1567.81
64	10865	1568.06
65	10886	1568.06
63	10872	1568.19
63	10854	1568.44
81	10851	1568.57
63	10844	1568.7
65	10837	1568.44
63	10837	1568.19
65	10856	1568.19
64	10887	1567.93
64	10870	1567.93
63	10833	1567.81
65	10788	1567.81
63	10710	1567.68
65	10594	1567.55
64	10489	1567.3
80	10370	1567.3
63	10275	1567.3
64	10176	1567.17
65	10090	1567.17
63	10017	1567.17
64	9966	1567.04
63	9888	1567.04
65	9807	1567.04
64	9740	1567.04
64	9678	1567.04
64	9610	1566.92
64	9557	1566.92
79	9501	1567.04
64	9451	1567.04
65	9396	1567.04
64	9358	1567.04
63	9316	1567.04
64	9275	1567.04
65	9239	1566.92
63	9201	1567.04
65	9166	1567.04
64	9140	1567.04
64	9106	1566.92
63	9076	1567.04
80	9051	1567.04
65	9015	1567.04
63	8996	1567.04
64	8964	1567.04
64	8946	1567.04
64	8925	1566.79
64	8901	1567.04
65	8874	1567.04
62	8855	1566.79
65	8839	1566.92
64	8814	1567.04
64	8801	1567.04
80	8778	1566.92
64	8756	1567.04
64	8740	1566.92
63	8728	1567.04
65	8715	1566.92
64	8689	1566.92
63	8672	1567.04
65	8666	1566.92
63	8653	1567.04
64	8629	1566.92
64	8627	1567.04
65	8606	1566.92
79	8589	1567.04
64	8583	1567.04
64	8579	1566.92
64	8559	1566.92
65	8551	1567.04
63	8533	1566.92
64	8521	1566.92
64	8511	1567.04
64	8499	1567.04
64	8496	1566.92
64	8488	1566.92
64	8472	1567.04
80	8470	1567.04
63	8462	1567.04
64	8450	1566.92
65	8443	1567.04
64	8437	1566.92
63	8439	1566.92
65	8441	1567.04
64	8446	1566.92
64	8443	1567.04
63	8443	1567.04
64	8442	1567.04
64	8437	1567.04
81	8440	1567.04
63	8443	1566.92
65	8441	1567.04
63	8446	1566.92
65	8444	1567.04
63	8442	1567.04
64	8444	1567.04
64	8447	1567.04
64	8450	1566.92
64	8447	1566.92
64	8450	1566.92
64	8444	1566.92
80	8442	1566.92
63	8444	1566.92
64	8445	1567.04
65	8441	1567.04
64	8446	1566.92
64	8448	1566.92
63	8446	1567.04
64	8444	1567.04
65	8443	1567.04
63	8444	1567.04
64	8451	1566.92
64	8448	1567.04
80	8446	1566.92
64	8440	1567.04
64	8446	1567.04
64	8445	1566.92
64	8451	1566.92
64	8446	1567.17
63	8446	1567.04
65	8445	1567.04
63	8452	1567.04
64	8446	1567.04
64	8446	1566.92
65	8446	1567.04
79	8451	1566.92
65	8451	1566.92
63	8446	1566.92
64	8444	1567.04
65	8445	1567.17
63	8445	1567.04
65	8452	1567.17
63	8454	1566.92
64	8445	1567.04
64	8444	1567.04
64	8449	1567.04
64	8447	1566.92
80	8443	1567.04
65	8460	1567.04
63	8450	1567.04
64	8449	1567.04
64	8451	1567.04
64	8451	1566.92
64	8443	1567.04
64	8445	1567.04
63	8449	1567.04
65	8452	1566.92
64	8446	1567.04
63	8449	1567.04
81	8443	1566.92
64	8451	1567.04
64	8447	1567.04
64	8449	1567.04
63	8444	1567.04
64	8446	1567.04
64	8453	1566.92
64	8450	1567.04
65	8446	1566.92
63	8451	1567.04
65	8448	1567.04
63	8446	1566.92
80	8452	1567.04
64	8451	1566.92
64	8449	1567.04
64	8458	1566.92
64	8452	1566.92
64	8451	1567.04
64	8449	1567.04
63	8450	1566.92
64	8449	1567.04
65	8454	1566.92
63	8450	1566.92
65	8452	1567.04
80	8453	1566.92
63	8459	1566.92
65	8452	1566.92
63	8459	1566.92
64	8464	1567.04
65	8461	1566.92
63	8462	1567.04
65	8476	1566.92
63	8493	1567.04
64	8494	1566.92
64	8500	1566.92
64	8509	1567.04
80	8523	1566.92
65	8539	1566.92
63	8550	1566.92
64	8553	1566.92
64	8568	1567.04
64	8579	1566.92
63	8596	1566.92
65	8597	1566.92
64	8619	1567.04
64	8632	1566.92
64	8651	1567.04
64	8662	1567.04
80	8676	1566.92
64	8688	1566.92
64	8702	1566.92
63	8721	1567.04
65	8734	1567.04
63	8751	1566.92
64	8763	1566.92
64	8784	1566.92
64	8806	1566.92
64	8826	1567.04
64	8845	1566.92
64	8863	1566.92
80	8888	1566.92
64	8902	1567.17
64	8925	1566.92
64	8942	1567.04
63	8970	1567.04
65	8996	1567.04
64	9016	1566.92
64	9044	1566.92
64	9071	1567.04
63	9106	1567.04
65	9134	1566.92
63	9168	1566.92
81	9199	1567.04
63	9234	1567.04
65	9282	1567.04
63	9303	1567.04
64	9346	1567.04
65	9389	1567.04
63	9442	1567.04
64	9497	1566.92
64	9553	1567.04
64	9610	1567.04
64	9664	1566.92
64	9729	1567.04
80	9802	1567.04
64	9863	1567.04
64	9933	1567.04
64	9997	1567.17
63	10077	1567.17
65	10151	1567.17
64	10245	1567.3
64	10348	1567.43
63	10464	1567.55
64	10560	1567.68
65	10643	1567.68
63	10715	1567.81
80	10778	1567.93
64	10820	1567.93
65	10839	1568.06
63	10825	1568.19
64	10812	1568.32
64	10809	1568.57
64	10800	1568.7
64	10796	1568.44
64	10796	1568.32
64	10822	1568.06
64	10843	1568.06
64	10820	1567.93
80	10779	1567.81
63	10735	1567.68
65	10643	1567.55
64	10531	1567.55
64	10412	1567.43
64	10316	1567.3
63	10224	1567.3
64	10120	1567.17
65	10036	1567.17
63	9968	1567.04
64	9905	1567.04
64	9833	1567.04
81	9752	1567.04
63	9683	1567.04
64	9618	1567.04
64	9561	1567.04
65	9510	1567.04
63	9456	1567.04
65	9402	1567.04
63	9347	1566.92
64	9312	1566.92
64	9266	1566.92
64	9226	1567.04
64	9183	1566.92
80	9155	1566.92
64	9120	1567.04
64	9092	1566.92
65	9056	1567.04
63	9031	1566.92
63	8989	1567.17
65	8973	1566.92
63	8946	1567.04
64	8920	1566.92
64	8887	1567.04
65	8875	1566.92
63	8857	1567.04
81	8827	1566.92
63	8818	1566.92
64	8782	1566.92
64	8766	1567.04
64	8755	1567.04
64	8730	1567.04
64	8708	1566.92
64	8696	1567.04
64	8678	1566.92
64	8664	1566.92
64	8653	1566.92
64	8631	1566.92
80	8616	1567.04
64	8603	1567.04
63	8599	1567.04
66	8578	1567.04
62	8563	1567.17
64	8548	1566.92
65	8538	1567.04
64	8528	1567.04
63	8517	1567.04
65	8515	1567.04
63	8493	1567.04
65	8476	1567.04
79	8481	1567.04
64	8472	1567.04
64	8457	1567.04
64	8448	1567.04
64	8443	1566.92
64	8436	1566.92
64	8425	1566.92
64	8415	1567.04
64	8409	1566.92
64	8402	1567.04
64	8402	1566.92
64	8408	1566.92
80	8409	1566.92
63	8412	1566.92
64	8410	1567.04
65	8407	1567.04
63	8409	1566.92
65	8408	1567.04
64	8407	1567.04
64	8404	1566.92
63	8410	1567.04
64	8410	1566.92
65	8406	1567.04
80	8409	1567.04
63	8413	1567.04
64	8408	1567.04
64	8410	1567.04
65	8411	1566.92
63	8404	1566.92
64	8411	1567.04
64	8409	1567.04
64	8407	1566.92
64	8408	1566.79
64	8413	1566.92
64	8407	1566.92
63	8415	1566.92
81	8411	1567.04
64	8413	1566.92
64	8414	1566.92
64	8414	1566.92
63	8410	1567.04
64	8414	1567.04
65	8411	1567.04
63	8413	1566.92
64	8409	1566.92
65	8408	1567.04
63	8418	1566.92
80	8407	1567.04
65	8413	1567.04
63	8418	1567.04
64	8413	1566.92
64	8414	1567.04
64	8411	1566.92
64	8413	1567.17
65	8413	1567.04
63	8413	1567.04
63	8412	1567.04
65	8410	1567.04
64	8418	1566.92
79	8413	1567.04
64	8412	1567.04
64	8412	1567.04
65	8412	1567.04
64	8411	1567.04
63	8411	1566.92
64	8420	1566.92
64	8417	1567.04
64	8414	1567.04
64	8411	1567.04
64	8420	1567.04
64	8415	1567.04
80	8414	1566.92
64	8411	1567.04
64	8411	1566.92
64	8410	1566.92
64	8417	1567.04
64	8417	1566.92
64	8415	1566.92
64	8414	1566.79
64	8416	1567.04
64	8420	1567.04
64	8413	1567.04
64	8420	1567.04
80	8416	1567.04
63	8421	1567.04
64	8419	1567.04
65	8415	1567.04
64	8414	1566.92
63	8415	1567.04
64	8416	1567.04
65	8415	1566.92
63	8420	1567.04
64	8418	1567.04
64	8419	1566.92
64	8425	1567.04
80	8422	1567.04
64	8417	1567.04
64	8419	1567.17
64	8420	1567.04
64	8413	1566.92
64	8419	1566.92
64	8423	1566.92
64	8417	1567.04
64	8422	1567.04
64	8415	1567.04
64	8421	1567.04
63	8429	1566.92
80	8437	1567.04
64	8445	1567.04
64	8456	1567.04
64	8465	1567.04
64	8475	1566.92
65	8481	1566.92
63	8492	1567.04
64	8496	1566.92
64	8517	1566.92
64	8528	1567.04
64	8543	1567.04
64	8553	1566.92
80	8559	1566.92
64	8578	1566.92
64	8587	1566.92
64	8594	1566.92
64	8617	1567.04
64	8629	1566.92
64	8649	1566.92
63	8658	1567.04
64	8665	1567.04
65	8689	1567.04
64	8703	1566.92
63	8724	1567.04
81	8735	1567.04
64	8762	1567.04
63	8777	1567.04
64	8791	1567.04
64	8808	1567.04
64	8828	1567.04
64	8852	1567.04
64	8878	1567.04
64	8886	1567.04
64	8919	1567.04
64	8939	1566.92
64	8966	1566.92
80	8990	1567.04
64	9014	1567.04
64	9046	1567.04
64	9076	1567.04
63	9106	1566.92
64	9135	1566.92
65	9170	1567.04
63	9203	1567.04
64	9238	1567.04
65	9280	1567.04
63	9315	1567.04
65	9359	1566.92
79	9410	1567.04
64	9470	1566.92
64	9524	1567.04
64	9579	1567.04
64	9644	1567.04
64	9705	1567.04
64	9766	1566.92
64	9836	1567.17
64	9910	1567.04
64	9976	1567.17
64	10042	1567.17
64	10130	1567.17
79	10223	1567.3
65	10334	1567.43
64	10445	1567.43
64	10538	1567.55
64	10621	1567.68
63	10690	1567.68
65	10748	1567.81
64	10792	1567.93
64	10797	1568.19
63	10782	1568.32
65	10767	1568.44
63	10769	1568.7
80	10761	1568.57
65	10752	1568.44
64	10760	1568.32
64	10786	1568.06
63	10808	1568.06
64	10783	1567.93
64	10739	1567.81
64	10691	1567.68
64	10596	1567.55
64	10479	1567.43
64	10362	1567.43
64	10269	1567.3
80	10167	1567.17
64	10070	1567.17
64	9988	1567.04
64	9919	1567.17
63	9855	1567.04
65	9782	1567.04
63	9706	1567.17
65	9636	1567.04
64	9567	1567.04
64	9512	1567.04
64	9463	1567.04
64	9413	1567.04
79	9352	1567.04
64	9316	1566.92
64	9257	1566.92
64	9228	1567.04
65	9188	1567.04
63	9145	1567.04
65	9113	1567.04
63	9071	1566.92
64	9050	1567.04
64	9011	1567.04
64	8984	1567.04
64	8958	1567.04
80	8930	1567.04
64	8911	1567.04
63	8885	1567.04
65	8847	1567.04
63	8832	1566.92
65	8809	1567.04
65	8790	1567.04
63	8769	1567.04
64	8744	1567.04
63	8727	1566.92
64	8710	1566.92
64	8690	1566.92
81	8677	1566.92
64	8660	1567.04
63	8639	1566.92
64	8632	1567.04
64	8609	1567.04
64	8598	1566.92
64	8586	1566.92
64	8569	1567.04
64	8557	1567.04
64	8543	1566.92
64	8528	1567.04
64	8515	1567.04
80	8507	1567.04
64	8494	1567.04
63	8487	1567.04
65	8480	1567.04
63	8464	1567.04
64	8458	1566.92
64	8445	1567.04
65	8436	1567.04
63	8423	1567.04
64	8414	1567.04
64	8405	1566.92
64	8400	1567.04
80	8388	1567.04
64	8386	1567.04
65	8373	1566.92
63	8370	1567.04
64	8372	1566.92
64	8377	1567.04
64	8372	1567.04
64	8371	1566.92
64	8371	1567.04
64	8374	1567.04
63	8374	1567.04
65	8373	1567.04
80	8376	1567.04
63	8378	1566.92
64	8373	1567.04
65	8375	1566.92
63	8372	1567.04
64	8377	1567.04
65	8377	1567.04
63	8378	1567.04
65	8381	1567.04
64	8379	1567.04
64	8385	1566.92
63	8377	1566.92
81	8379	1566.92
63	8384	1566.92
64	8382	1566.92
64	8386	1567.04
64	8376	1566.92
64	8376	1566.92
64	8383	1567.04
64	8383	1567.04
65	8380	1567.04
63	8380	1567.04
64	8379	1567.04
64	8387	1567.04
79	8384	1566.92
65	8382	1566.92
64	8384	1567.04
64	8387	1567.04
64	8383	1567.04
63	8382	1566.92
65	8385	1567.04
63	8378	1566.92
64	8385	1567.04
64	8385	1566.92
65	8386	1567.04
63	8385	1566.92
80	8384	1567.04
64	8389	1567.04
64	8383	1567.04
64	8383	1566.92
64	8385	1567.04
64	8384	1566.92
64	8384	1566.92
64	8387	1566.92
64	8385	1567.04
64	8387	1566.92
64	8383	1567.04
64	8388	1566.92
79	8385	1567.04
64	8383	1567.04
64	8387	1567.04
64	8387	1567.04
65	8390	1567.04
64	8387	1566.92
63	8387	1567.04
65	8384	1566.92
64	8386	1566.92
64	8391	1566.92
63	8393	1566.79
65	8389	1566.92
80	8385	1567.04
63	8390	1567.04
65	8391	1567.04
63	8390	1566.92
64	8388	1566.92
65	8386	1567.04
63	8388	1567.04
64	8388	1567.04
64	8381	1567.04
63	8389	1566.92
65	8389	1567.04
64	8393	1566.92
80	8399	1567.04
64	8389	1566.92
64	8391	1566.92
63	8393	1566.92
65	8388	1567.04
64	8388	1566.92
64	8388	1566.92
63	8392	1566.92
64	8386	1567.04
65	8389	1566.92
63	8393	1567.04
64	8387	1566.92
80	8395	1567.04
64	8386	1566.92
64	8390	1566.92
64	8396	1567.04
64	8407	1566.92
64	8412	1566.92
64	8421	1567.04
64	8428	1567.04
64	8444	1567.04
64	8451	1567.04
64	8461	1567.04
63	8471	1566.92
81	8477	1567.04
64	8490	1567.04
64	8496	1566.92
63	8507	1567.04
65	8519	1567.04
63	8534	1567.04
65	8550	1567.04
63	8565	1566.92
64	8575	1566.92
64	8590	1567.04
64	8596	1567.04
64	8618	1567.04
80	8632	1567.04
64	8654	1567.04
64	8664	1567.04
64	8682	1567.04
64	8700	1567.04
65	8713	1567.04
63	8735	1567.04
64	8753	1566.92
63	8769	1566.92
65	8787	1567.04
64	8805	1567.04
63	8826	1566.92
80	8842	1567.04
64	8874	1567.04
64	8893	1566.92
64	8923	1566.92
65	8944	1567.04
64	8969	1566.92
63	8996	1566.92
64	9024	1567.04
64	9059	1566.92
64	9075	1567.04
65	9121	1566.92
63	9154	1567.04
80	9189	1567.04
64	9224	1566.92
64	9266	1566.92
64	9305	1566.92
64	9349	1566.92
64	9404	1567.04
64	9459	1566.92
63	9510	1566.92
65	9573	1566.92
64	9634	1567.04
63	9702	1567.04
64	9760	1567.04
80	9826	1567.04
64	9893	1567.17
64	9971	1567.04
65	10039	1567.17
63	10118	1567.3
64	10219	1567.3
64	10330	1567.43
64	10439	1567.43
64	10524	1567.55
64	10611	1567.68
64	10673	1567.81
64	10725	1567.93
80	10765	1568.06
65	10763	1568.06
63	10747	1568.32
64	10729	1568.57
63	10729	1568.7
65	10726	1568.57
64	10722	1568.44
63	10739	1568.32
65	10761	1568.06
64	10764	1567.93
64	10735	1567.81
63	10689	1567.68
81	10630	1567.55
63	10515	1567.55
64	10401	1567.43
65	10284	1567.43
64	10197	1567.3
64	10096	1567.3
64	9996	1567.3
63	9928	1567.17
64	9858	1567.04
64	9784	1567.04
64	9721	1567.04
64	9649	1567.04
80	9575	1567.04
64	9509	1566.92
63	9457	1567.04
65	9410	1567.04
64	9356	1567.04
63	9306	1567.04
64	9254	1566.92
64	9218	1567.04
64	9175	1567.04
65	9138	1567.04
64	9101	1566.92
63	9063	1567.04
81	9034	1567.04
64	8995	1567.04
63	8963	1566.92
64	8946	1567.04
64	8911	1567.04
64	8896	1567.04
64	8866	1566.92
65	8843	1566.92
63	8817	1567.04
64	8789	1567.04
66	8775	1566.92
63	8749	1567.04
79	8729	1567.04
63	8712	1567.04
65	8697	1567.04
64	8677	1567.04
64	8655	1566.92
64	8638	1567.04
64	8624	1567.04
64	8613	1567.04
64	8602	1567.04
64	8581	1567.04
64	8558	1566.92
64	8553	1567.04
80	8533	1566.92
63	8516	1567.04
64	8512	1567.04
64	8496	1567.17
65	8480	1566.92
63	8471	1566.92
64	8463	1566.92
65	8460	1567.04
63	8443	1566.92
64	8428	1566.92
64	8422	1567.04
64	8411	1566.92
79	8413	1566.92
64	8391	1567.04
65	8386	1567.04
64	8373	1566.92
64	8367	1567.04
63	8363	1567.04
64	8353	1567.04
65	8348	1567.04
63	8339	1567.04
64	8352	1566.92
64	8350	1566.92
65	8349	1566.92
80	8346	1566.92
63	8347	1567.04
64	8356	1566.92
64	8343	1567.04
64	8348	1567.04
64	8348	1566.92
64	8351	1566.92
64	8349	1566.92
64	8353	1566.92
66	8343	1567.04
62	8352	1566.92
64	8350	1567.04
79	8356	1567.04
64	8349	1567.04
65	8351	1566.92
64	8354	1567.04
63	8354	1566.92
65	8351	1566.92
63	8358	1566.92
65	8353	1566.92
63	8353	1567.04
64	8354	1566.92
64	8349	1567.04
80	8358	1567.04
65	8350	1566.92
63	8351	1567.04
65	8354	1567.04
62	8356	1567.04
66	8357	1567.04
63	8353	1566.92
64	8357	1566.92
64	8352	1567.04
64	8354	1566.92
64	8358	1567.04
64	8356	1567.04
79	8357	1567.04
65	8351	1566.92
64	8358	1566.92
64	8357	1567.04
64	8361	1566.92
63	8357	1566.92
65	8352	1566.92
64	8360	1566.92
64	8357	1566.92
63	8353	1567.04
64	8354	1566.92
65	8363	1566.92
79	8355	1566.92
64	8360	1567.04
64	8358	1567.04
64	8359	1567.04
64	8357	1566.92
64	8355	1567.04
64	8354	1567.04
64	8356	1566.92
64	8358	1567.04
64	8358	1567.04
63	8359	1566.92
65	8365	1567.17
80	8357	1566.92
64	8363	1566.92
63	8361	1567.04
64	8358	1567.04
64	8363	1567.04
65	8362	1567.04
63	8357	1566.92
64	8360	1567.04
64	8363	1566.92
64	8360	1567.04
64	8362	1567.04
64	8358	1567.04
80	8360	1566.92
64	8362	1567.04
64	8366	1567.04
64	8364	1566.92
64	8363	1567.04
65	8357	1567.04
63	8367	1567.04
64	8358	1567.04
64	8366	1567.04
63	8362	1566.92
66	8364	1567.04
63	8364	1566.92
79	8360	1566.92
64	8363	1566.92
65	8358	1566.92
64	8363	1566.92
64	8366	1567.04
63	8367	1566.92
65	8362	1567.04
63	8369	1566.92
65	8369	1567.04
64	8381	1567.04
64	8383	1567.04
63	8391	1567.04
80	8401	1567.04
64	8405	1567.04
64	8425	1567.04
64	8428	1566.92
64	8433	1566.92
64	8449	1567.04
64	8459	1567.04
64	8469	1566.92
64	8483	1567.04
64	8487	1566.92
64	8497	1566.92
64	8517	1567.04
80	8522	1567.04
63	8540	1566.92
65	8555	1566.92
63	8569	1567.04
65	8583	1567.04
63	8596	1566.92
65	8615	1566.92
63	8621	1567.04
65	8644	1567.04
63	8661	1567.04
64	8681	1566.92
64	8693	1566.92
80	8705	1567.04
64	8732	1567.04
64	8745	1567.04
64	8770	1567.04
64	8781	1567.04
63	8810	1566.92
65	8833	1567.04
64	8857	1567.04
64	8878	1567.04
64	8900	1567.04
63	8923	1566.92
65	8951	1567.04
80	8966	1567.04
63	9003	1566.92
65	9031	1566.92
63	9064	1566.92
64	9103	1566.92
64	9127	1566.92
64	9174	1567.04
64	9210	1567.04
64	9248	1566.92
64	9289	1566.92
65	9332	1566.92
63	9379	1567.04
80	9444	1566.92
64	9482	1567.04
64	9550	1566.92
64	9623	1567.04
64	9673	1567.04
63	9737	1567.17
65	9808	1567.04
63	9871	1567.17
65	9959	1567.17
63	10018	1567.17
65	10118	1567.3
64	10223	1567.3
80	10334	1567.55
64	10436	1567.43
64	10526	1567.55
63	10597	1567.68
64	10660	1567.68
64	10704	1567.93
64	10728	1568.06
65	10712	1568.19
63	10694	1568.32
64	10681	1568.44
65	10683	1568.7
63	10681	1568.44
80	10689	1568.32
64	10706	1568.19
64	10739	1568.06
63	10726	1567.93
64	10692	1567.81
64	10644	1567.68
64	10570	1567.55
65	10464	1567.43
63	10345	1567.43
64	10237	1567.3
64	10133	1567.3
64	10033	1567.3
80	9952	1567.17
65	9870	1567.17
64	9804	1567.04
63	9733	1567.04
64	9667	1567.04
64	9595	1567.04
65	9530	1567.04
63	9466	1567.04
64	9418	1567.04
64	9369	1567.04
64	9317	1566.92
64	9263	1567.04
80	9210	1567.04
64	9171	1567.04
63	9134	1566.92
65	9100	1567.04
64	9056	1567.04
64	9029	1567.04
64	8994	1567.04
64	8964	1567.04
64	8930	1567.04
64	8906	1566.92
64	8879	1567.04
63	8856	1567.04
81	8835	1566.92
63	8812	1566.92
65	8783	1567.04
63	8763	1566.92
64	8742	1566.92
64	8721	1566.92
64	8696	1567.04
64	8688	1566.92
64	8663	1566.92
64	8647	1566.92
64	8621	1566.92
64	8610	1567.04
80	8592	1566.92
64	8580	1566.92
63	8568	1567.04
64	8545	1567.04
65	8539	1567.04
63	8516	1566.92
65	8504	1566.92
64	8493	1567.04
64	8477	1567.04
63	8461	1567.04
64	8462	1567.04
64	8444	1566.92
81	8437	1567.04
63	8426	1566.92
65	8412	1567.04
64	8408	1567.04
63	8399	1566.92
64	8384	1567.04
64	8374	1567.04
64	8360	1567.04
64	8353	1567.04
64	8351	1566.92
64	8341	1567.04
64	8334	1567.04
80	8323	1567.04
64	8317	1566.92
64	8319	1567.04
64	8321	1567.04
64	8318	1567.04
63	8320	1566.92
64	8323	1566.92
64	8324	1567.04
64	8322	1567.04
65	8320	1566.92
63	8324	1567.04
64	8325	1566.92
81	8322	1566.92
63	8329	1566.92
65	8326	1567.04
64	8323	1566.92
63	8325	1567.04
64	8319	1567.04
64	8322	1567.04
63	8324	1566.92
65	8323	1566.92
64	8327	1566.92
64	8326	1566.92
64	8328	1566.92
80	8324	1567.04
63	8329	1567.04
65	8322	1567.04
64	8326	1567.04
63	8324	1566.92
64	8323	1567.04
64	8319	1566.92
65	8326	1567.04
64	8326	1566.92
63	8324	1567.04
64	8328	1567.04
64	8332	1567.04
80	8323	1566.92
65	8326	1567.04
63	8324	1566.92
64	8330	1567.04
64	8330	1567.04
65	8326	1566.92
63	8331	1566.92
64	8332	1566.92
64	8328	1566.92
64	8331	1566.92
64	8327	1567.04
64	8329	1566.92
80	8331	1567.04
63	8331	1566.92
65	8325	1567.04
63	8330	1566.92
65	8324	1566.92
63	8333	1567.04
65	8327	1567.04
64	8322	1566.92
64	8335	1567.04
64	8326	1567.04
64	8326	1567.04
63	8330	1567.04
81	8334	1567.04
64	8332	1567.04
63	8335	1567.04
64	8337	1567.04
64	8333	1567.04
64	8333	1566.92
64	8338	1566.92
64	8334	1567.04
64	8337	1567.04
64	8334	1566.92
64	8334	1567.04
64	8336	1566.92
79	8334	1566.92
65	8335	1566.92
63	8339	1567.04
65	8332	1567.04
63	8333	1566.92
64	8341	1566.92
65	8338	1567.04
64	8338	1567.04
63	8338	1566.79
65	8336	1566.92
63	8340	1566.92
64	8339	1567.04
80	8334	1567.04
64	8340	1566.92
64	8345	1567.04
64	8338	1566.92
64	8339	1566.92
64	8338	1566.92
64	8337	1566.92
64	8341	1566.92
64	8344	1567.04
63	8341	1567.17
65	8342	1566.92
63	8340	1566.92
81	8341	1567.04
64	8345	1566.92
64	8349	1566.92
64	8363	1567.17
64	8374	1566.92
64	8381	1567.04
63	8390	1566.92
64	8396	1567.04
64	8410	1566.92
64	8418	1567.04
64	8431	1567.04
65	8442	1566.92
79	8449	1566.92
64	8462	1566.92
64	8468	1567.04
64	8478	1567.04
64	8499	1567.04
64	8515	1566.92
64	8528	1566.92
63	8521	1567.04
65	8547	1566.92
64	8563	1567.04
63	8591	1567.04
65	8597	1567.04
80	8608	1566.92
64	8620	1567.04
64	8648	1566.92
63	8659	1566.92
64	8683	1567.04
65	8698	1566.92
64	8721	1566.92
64	8728	1567.04
63	8755	1567.04
64	8782	1566.92
64	8794	1567.04
65	8812	1566.92
80	8838	1567.04
63	8873	1567.04
64	8891	1566.92
63	8917	1566.92
65	8941	1566.92
64	8972	1567.04
63	8994	1566.92
65	9031	1566.79
63	9060	1566.92
65	9091	1566.92
64	9127	1567.04
64	9161	1567.04
80	9203	1567.04
63	9243	1567.04
64	9285	1567.04
64	9336	1566.92
64	9384	1567.17
64	9446	1566.92
64	9500	1567.04
64	9560	1566.92
64	9636	1567.04
65	9694	1567.04
63	9754	1567.17
64	9823	1567.04
80	9887	1567.17
64	9966	1567.17
64	10049	1567.3
64	10140	1567.3
64	10253	1567.3
64	10367	1567.55
64	10455	1567.55
64	10537	1567.68
64	10611	1567.68
63	10662	1567.93
64	10703	1567.93
64	10700	1568.06
81	10688	1568.32
64	10671	1568.44
63	10670	1568.57
64	10668	1568.57
65	10667	1568.44
63	10679	1568.32
64	10704	1568.06
64	10719	1568.06
64	10696	1567.81
64	10648	1567.68
64	10598	1567.55
64	10498	1567.55
80	10386	1567.43
64	10260	1567.3
63	10162	1567.3
65	10068	1567.3
64	9972	1567.3
64	9882	1567.17
64	9814	1567.17
64	9746	1567.04
63	9677	1567.17
65	9612	1567.04
64	9540	1567.04
63	9484	1567.04
81	9418	1567.04
63	9370	1567.04
64	9321	1566.92
64	9264	1567.04
64	9217	1567.04
64	9167	1566.92
64	9132	1566.92
65	9088	1567.04
63	9051	1567.04
64	9019	1566.92
64	8980	1566.92
64	8964	1566.92
80	8929	1566.79
64	8900	1566.92
64	8880	1566.79
64	8843	1567.04
64	8821	1567.04
63	8789	1566.92
64	8776	1567.04
64	8758	1566.92
65	8730	1567.04
64	8708	1566.92
63	8693	1566.92
64	8675	1566.92
80	8645	1566.92
64	8632	1567.04
64	8615	1566.92
64	8601	1566.92
64	8578	1567.04
64	8560	1567.04
64	8541	1567.04
64	8535	1566.92
64	8513	1567.04
64	8498	1566.92
64	8490	1566.92
64	8472	1566.92
80	8464	1567.04
64	8455	1566.92
64	8444	1566.92
63	8434	1567.04
65	8418	1566.92
64	8412	1567.04
64	8399	1566.92
63	8384	1566.92
64	8383	1566.92
64	8368	1566.92
64	8358	1567.04
64	8346	1566.92
80	8348	1567.04
64	8328	1566.92
65	8320	1567.04
63	8316	1567.04
64	8309	1567.04
64	8295	1567.04
64	8292	1567.04
64	8304	1566.92
64	8295	1567.17
64	8300	1567.04
64	8300	1567.04
64	8298	1566.92
80	8299	1566.92
64	8307	1567.04
66	8302	1566.92
62	8302	1567.04
63	8304	1567.04
65	8299	1567.04
63	8301	1567.04
65	8302	1566.92
64	8304	1566.92
64	8303	1566.92
64	8301	1567.04
80	8301	1567.04
64	8304	1566.92
63	8303	1566.92
64	8307	1566.92
64	8299	1566.92
64	8304	1567.17
64	8302	1566.92
64	8302	1567.04
64	8305	1566.92
64	8307	1566.92
64	8304	1567.17
63	8304	1566.92
64	8308	1566.92
81	8304	1567.04
64	8305	1567.04
64	8307	1567.04
64	8306	1567.04
64	8301	1567.04
63	8299	1567.04
65	8307	1566.92
63	8304	1566.92
65	8304	1566.92
63	8306	1566.92
64	8309	1567.04
64	8309	1567.04
80	8307	1566.92
65	8309	1567.04
63	8311	1567.04
64	8313	1567.04
64	8308	1567.04
64	8309	1566.79
64	8313	1567.04
64	8312	1566.92
64	8309	1566.92
64	8312	1567.04
64	8312	1566.92
80	8315	1567.04
64	8305	1567.04
64	8311	1566.92
64	8311	1566.92
64	8313	1567.04
64	8313	1567.04
63	8312	1567.04
66	8306	1566.79
63	8310	1566.92
64	8309	1567.04
63	8315	1566.92
64	8315	1567.04
80	8314	1567.04
64	8315	1566.92
64	8316	1567.04
64	8316	1566.92
64	8314	1567.04
64	8314	1566.92
64	8318	1566.92
64	8311	1567.04
64	8315	1567.04
64	8311	1566.92
63	8315	1567.04
65	8318	1567.04
79	8319	1567.04
64	8318	1566.92
65	8319	1566.92
63	8321	1567.04
64	8319	1567.04
64	8319	1567.17
64	8319	1567.04
65	8322	1566.92
63	8321	1567.04
64	8318	1567.04
64	8316	1567.04
64	8316	1566.92
81	8315	1567.04
63	8320	1567.04
64	8322	1566.92
64	8316	1566.92
64	8317	1567.04
64	8322	1567.04
64	8319	1566.92
63	8323	1566.92
64	8318	1567.04
65	8319	1566.92
64	8318	1567.04
64	8316	1566.92
80	8323	1567.04
64	8324	1566.92
64	8320	1567.04
63	8316	1567.04
64	8320	1566.92
65	8321	1566.92
63	8322	1566.92
65	8326	1567.04
63	8323	1566.92
64	8324	1566.92
64	8321	1567.04
64	8314	1566.92
80	8324	1567.04
64	8324	1567.04
64	8321	1566.92
64	8321	1566.92
64	8319	1567.04
63	8323	1567.04
65	8326	1567.04
64	8326	1567.04
64	8320	1567.04
64	8320	1567.04
64	8324	1566.92
64	8324	1567.04
79	8318	1566.92
65	8321	1567.04
64	8330	1566.92
64	8329	1566.92
64	8322	1567.04
63	8328	1567.04
65	8323	1566.92
63	8325	1566.92
64	8326	1566.92
64	8323	1567.04
65	8329	1567.04
63	8325	1566.92
81	8327	1566.92
63	8325	1566.92
64	8328	1566.92
64	8329	1566.92
63	8326	1567.04
64	8325	1567.04
65	8327	1566.92
64	8327	1566.92
64	8325	1567.04
64	8321	1567.04
64	8329	1566.92
64	8326	1566.92
79	8331	1566.92
64	8330	1567.04
65	8321	1566.92
63	8329	1566.92
65	8327	1567.04
64	8326	1566.92
63	8329	1567.04
65	8331	1566.92
64	8329	1566.92
63	8327	1566.92
65	8332	1566.92
63	8325	1566.92
80	8330	1566.92
64	8328	1566.92
64	8330	1566.92
64	8331	1566.92
64	8331	1566.92
64	8332	1567.04
65	8332	1566.92
63	8333	1566.92
64	8328	1567.04
64	8332	1566.79
63	8331	1567.04
64	8335	1566.92
81	8331	1567.04
63	8330	1566.79
65	8327	1567.04
64	8333	1567.04
63	8333	1566.92
64	8328	1566.92
64	8331	1566.79
64	8330	1567.04
64	8332	1567.04
64	8329	1566.92
65	8331	1567.04
63	8332	1567.04
80	8334	1567.04
64	8329	1567.04
64	8333	1567.04
64	8334	1567.04
63	8337	1566.92
65	8330	1567.04
63	8332	1566.92
64	8335	1566.92
64	8333	1567.04
65	8331	1567.04
64	8329	1566.92
63	8331	1567.04
80	8334	1567.04
64	8336	1566.92
65	8335	1566.92
63	8337	1567.04
65	8329	1567.04
63	8336	1567.04
64	8334	1567.04
64	8335	1567.04
63	8333	1566.92
65	8335	1567.04
64	8335	1566.92
64	8334	1566.92
79	8331	1567.04
65	8333	1567.04
63	8331	1566.92
65	8333	1567.04
65	8332	1566.92
62	8335	1567.04
65	8335	1567.04
63	8335	1566.92
64	8333	1566.92
64	8334	1567.04
64	8335	1566.92
64	8332	1567.04
81	8333	1567.04
63	8339	1566.92
64	8334	1567.04
64	8334	1566.92
64	8337	1566.92
64	8336	1567.04
64	8335	1566.92
64	8334	1566.92
64	8336	1566.92
64	8334	1566.92
64	8338	1567.04
64	8337	1567.04
80	8339	1567.04
63	8337	1567.04
64	8335	1566.92
64	8338	1567.04
64	8336	1566.92
65	8338	1566.92
64	8336	1566.92
64	8337	1566.92
64	8337	1566.92
63	8340	1567.04
64	8338	1567.04
66	8341	1566.92
81	8341	1566.79
61	8339	1566.92
64	8340	1567.04
64	8337	1566.92
64	8338	1567.04
64	8338	1567.04
64	8338	1566.92
64	8340	1567.04
63	8341	1567.04
65	8335	1567.04
64	8338	1566.92
63	8340	1566.92
81	8342	1567.04
64	8338	1566.92
64	8343	1566.92
63	8341	1566.92
